,EEG.Fp1,EEG.AF3,EEG.F3,EEG.FC1,EEG.C3,EEG.FC3,EEG.T7,EEG.CP5,EEG.CP1,EEG.P1,EEG.P7,EEG.P9,EEG.PO3,EEG.O1,EEG.O9,EEG.POz,EEG.Oz,EEG.O10,EEG.O2,EEG.PO4,EEG.P10,EEG.P8,EEG.P2,EEG.CP2,EEG.CP6,EEG.T8,EEG.FC4,EEG.C4,EEG.FC2,EEG.F4,EEG.AF4,EEG.Fp2,number
0,0.2823148577152396,0.23123844308769156,0.2226042634558791,0.23000235749558576,0.23646864898256292,0.2514943438111599,0.20432428274612696,0.22361690453929112,0.2261116916691624,0.24398343689916746,0.23864760506454152,0.18724660533531734,0.18087025389544126,0.17824159537090395,0.20664971867842097,0.2627904519491245,0.24180098539606984,0.24520840193895904,0.1809550040073923,0.23348872837478482,0.22219103000328866,0.22494250294550752,0.21306025129416806,0.18604633655231959,0.2523427981009411,0.24383922808109537,0.24207978446557246,0.2505370673122867,0.23280491766994632,0.2750514102264289,0.2745680862861151,0.2696210270368661,0
1,0.30575642345910725,0.25703648261875595,0.2475770637916319,0.2515842389473977,0.2610856634169964,0.27464820060507866,0.22501720497744787,0.247203447666802,0.2538531637017065,0.2657384694779261,0.26781594874227943,0.20558318441815038,0.20445157976559142,0.19939338595008965,0.23195257233104202,0.2833862118201501,0.27384207475543354,0.27815948039408045,0.20152076003316388,0.2583652785799621,0.24479422063472236,0.2502743384795759,0.23656041542155157,0.20973093783804506,0.2708829203641904,0.2671238471005634,0.2781452438887895,0.2816964162580232,0.2652418403287654,0.305293272634676,0.30580763483482437,0.2947390259484017,0
2,0.31878107595562544,0.27016946387142265,0.2607621509376337,0.26484360067281176,0.27382888064040317,0.2875404815565272,0.2376427309551807,0.2595895577158179,0.2666451161456965,0.27848738932345063,0.2836088891146396,0.21528025585215418,0.21741983396224057,0.21015291159981403,0.24728649036169817,0.2967271600079968,0.29116739479643294,0.29592204698233654,0.21232476987667878,0.2709360691034088,0.2572428237786566,0.263474830133123,0.2497309725838463,0.2222451512002277,0.27949101350632516,0.28167487857010803,0.2971576281686149,0.29880902856444136,0.2806791557773266,0.3231717763314977,0.32341671316121334,0.3114306349523488,0
3,0.32784881210228345,0.27978548349714893,0.2694559452161204,0.27323218005570343,0.28211657566796994,0.2964576681845123,0.24684584031077175,0.2682559378972059,0.27490744976772147,0.288076278139939,0.29367773258306584,0.22171652868254588,0.22579173443593165,0.21690012257386646,0.25778931015269074,0.3062651639804582,0.3026772992561002,0.3079800538616333,0.2196720177880522,0.2797082637451361,0.26634824684081426,0.27208002805787806,0.25855361805381155,0.23027151348508734,0.2859595733798481,0.2916378454729919,0.30889596239836875,0.3095523597311599,0.2886563241305669,0.3341795770190251,0.3359280613857975,0.3226783716317514,0
4,0.33636951729336423,0.2888764774062664,0.27638082378088097,0.28045480288914815,0.2891702190072803,0.30439453750306555,0.25511257837062323,0.2759556508017715,0.2815104871436138,0.2961911196196207,0.30242681036361047,0.22774897190532598,0.23275013261451183,0.22285800884138762,0.26684792979625427,0.31498223770727085,0.3119373955699112,0.3175047971265121,0.2267271456190113,0.28770809349779636,0.27456121805475003,0.2797473440552377,0.2660799126840585,0.23771831550265365,0.292354852859102,0.3005690072042021,0.3188090252949407,0.31850739941263706,0.2946349687864168,0.3429903278764575,0.3464598518865539,0.33231021647671044,0
5,0.34512969699086693,0.2982737357252081,0.2829550039747122,0.28740134752691276,0.2956588850856865,0.31265100793900846,0.2626922212460348,0.2832782104200901,0.2883386984648884,0.3037516922787607,0.31080444959299464,0.23409430802191297,0.23913299486797243,0.22842140915185738,0.2758502057489109,0.3229851871832331,0.32020301698816006,0.3262433982891878,0.23398120461065147,0.295837327235215,0.2824589382424202,0.2874403608728613,0.2727249859532113,0.24524605496535506,0.29876791176550993,0.3089527200797299,0.3283119519213566,0.326760058824463,0.3003679547141557,0.3514672145243422,0.35662058522584456,0.34176956431619093,0
6,0.35351206270416224,0.30779811639233395,0.28970521332911187,0.2944180772590784,0.3020275131822251,0.3210803055941336,0.2700283971050357,0.2901261241346763,0.29541016284134924,0.3109075267278386,0.318688636825806,0.24004415082447453,0.2451743641417128,0.2342204317511336,0.2847880507333749,0.33109975633188327,0.3286242871046402,0.3347388056780634,0.24107063184682856,0.3037490935120279,0.2898785075650236,0.29474537771230147,0.2787309569255585,0.25277504051138966,0.30549175461688777,0.3173574479200149,0.33733569109202505,0.33510001687616103,0.306742530955885,0.3598329965408787,0.36706444199951593,0.3501506648984966,0
7,0.36146697468542044,0.31707994889588303,0.2965968173713384,0.30158788151733723,0.30820968758813355,0.32946338934886493,0.2777254329275555,0.29653841576287276,0.3027090190244793,0.31788707268434524,0.32606428549922356,0.24562178315809796,0.2512781172371625,0.24017434137844793,0.2937156404589925,0.3393303976953577,0.33680658366048283,0.3429399177278915,0.24808187128550038,0.31178479751486615,0.2968845269771954,0.30267841987932925,0.2845632498100309,0.26030992625859695,0.31270956040620657,0.32596200216553,0.34592472318496376,0.34382076875749296,0.3137001819464778,0.3679578413813706,0.3776006517019706,0.35777580807978404,0
8,0.3695654105716513,0.3263142662164168,0.30333852959780516,0.30918633289610076,0.31492140755904896,0.33772904608539234,0.2857353348843858,0.302606106963231,0.3101213433054635,0.3248900496746469,0.33316849685376904,0.25139179285634283,0.25736475936608494,0.2460889112894293,0.3027168910160864,0.34751606257154527,0.34518917730853776,0.3511186700667494,0.2550889702673802,0.32001532275141953,0.30392338425048704,0.3111533495210253,0.29074292757378,0.2681139148816649,0.3205742277892266,0.33503123809406393,0.35462448567857113,0.35281312554029737,0.32084026260931775,0.37627553796916596,0.38778159921061334,0.3658608492908349,0
9,0.3776940890026857,0.3346336638693141,0.3101404683148705,0.3166668978918849,0.32202677507090477,0.34586711854425317,0.2938521296379014,0.308993574314561,0.3174209859781654,0.33202201753948485,0.34018523919931837,0.257258922457215,0.26328910789205207,0.251561428045147,0.31175137320648083,0.3556717030138091,0.3536887383157179,0.35931518743981605,0.26196966582052145,0.32799885065207385,0.3106458612066218,0.31942676627507416,0.29701265602546806,0.27576545605989783,0.3289358911212312,0.3441021264300484,0.36362043200714544,0.3617912090089488,0.3279091516300418,0.3841656465745868,0.397365441195477,0.3748071944432983,0
10,0.3857879393184424,0.34266262997264324,0.31640878327912675,0.3237659181591454,0.3289645675952863,0.3537037086028932,0.3014196546481838,0.3153603125466711,0.3240363190009508,0.33908307584279634,0.3468720983851611,0.26289188868450475,0.2690683802251149,0.25666278956417315,0.3206291865815131,0.36347928714734773,0.36204641186182035,0.3674493619715795,0.26863589325385046,0.3353648163933784,0.3169303136630668,0.32714039161358155,0.30329369510345244,0.2830077431999985,0.3370364265292082,0.35308899062164734,0.37273957993367723,0.37048508969329397,0.3350687106601726,0.39159254407847266,0.4068057740957871,0.3836629155694631,0
11,0.3940122501962081,0.3501084139524216,0.3220400601198528,0.3308447578991479,0.3354854530532113,0.36081762888769825,0.30834042965441383,0.3213260563275544,0.33029105446031776,0.34611501310289466,0.35331760309452837,0.2683786083065518,0.2747553215205443,0.26133205251623665,0.3292998943482143,0.37079495379332594,0.36999426357647597,0.3755490892003669,0.2747107053911454,0.342105776089439,0.3226574223362289,0.33459212299706903,0.3092633393557736,0.28966427280762325,0.34429717656109454,0.36157645281391465,0.38132482147403146,0.3786901361652318,0.34222535181768243,0.3982198590658544,0.4160914985771598,0.3919738216255219,0
12,0.40179122024692604,0.35724391806673644,0.32715211718869597,0.33757643892319356,0.3415807625404389,0.36711178556756563,0.3147038072229596,0.32649113200480445,0.3361063032383938,0.3523920191148169,0.3595173577699849,0.27340293502048707,0.2801372206340113,0.26577517300836506,0.3374253392329392,0.3778294364788362,0.37735642437585326,0.3832654057897979,0.28039173768725023,0.34853515196524776,0.3280832781937287,0.34186944853695034,0.3144592789007199,0.2959990945665427,0.35066179683472765,0.36959310259709116,0.3892704498618016,0.38659336986040294,0.348864168764395,0.4039940429133268,0.42477224133556796,0.3993491356562945,0
13,0.4090763652110796,0.36362455270439276,0.3315862764175856,0.34343240845565265,0.34703510912166485,0.3727033071758375,0.32028064690763436,0.3311685268748781,0.3414360048047355,0.3581032923984206,0.36508408981792767,0.2779820753192373,0.28517367472985305,0.2697121601525439,0.3448847761413783,0.3843597773788345,0.38344210095850384,0.3902035138661714,0.2856572646828938,0.35484787732252754,0.3330438149338377,0.34866000400762887,0.3190489417411641,0.30201031742385637,0.35674428436687844,0.3771388838822429,0.3967082511464336,0.39405529446782334,0.35450962012767895,0.40898767718526646,0.4325072797479612,0.4055372474670235,0
14,0.4151138064770676,0.36922439545857544,0.33513182183167073,0.34813540791942366,0.3513496268250507,0.3775632932381429,0.32459462044286946,0.3349833440881752,0.3458181566097014,0.36275958687588145,0.3701448539344902,0.28209178052310374,0.2892600724733563,0.2728873753767349,0.35164209425747733,0.3903549729220457,0.3885168369213246,0.3961261541356788,0.2900982157013386,0.36083089471510976,0.337343069779397,0.3542488704443313,0.32300409370413774,0.3073012966838136,0.36223805247827595,0.38413862009113686,0.40341165227674386,0.4005635275121241,0.35905857411846503,0.41285338021204626,0.43903450552141754,0.41059352293795076,0
15,0.41941350140266,0.3739474462498714,0.33781288184978997,0.3515926372082278,0.3544369372904086,0.38152816379974297,0.3277155018919321,0.3379259752199953,0.3489787879352994,0.3660267708703593,0.3743644052759139,0.28525549530469363,0.2923040460859731,0.27489954173149506,0.3572731887971646,0.39544336037833416,0.3922230662930496,0.4006862286747841,0.29364268037092894,0.3663540105452355,0.34046635594373703,0.3583802790583694,0.3257163616971989,0.31202854546264314,0.3669550994143623,0.3904238479867639,0.4090996648832414,0.4060326475913901,0.3625153450128892,0.4154700734107549,0.44386774933180584,0.4142110669430547,0
16,0.42164882570597007,0.377013069380657,0.3386047441899741,0.35393587570212964,0.356020549041493,0.3837281437374445,0.3294228037819361,0.339419180962646,0.35042881453032415,0.36778758492605973,0.3769948374526365,0.28695918268002246,0.2940088980617819,0.27549991764946863,0.3611343084098315,0.3987759336112624,0.3942449237843697,0.4034569168500706,0.2957299696434846,0.37019670079732536,0.3418741789442208,0.36083228113971655,0.3270583469106023,0.31568218686449434,0.37003740062654467,0.39523305844945467,0.413231254517324,0.4099351474792275,0.36464928070553454,0.41637805852333887,0.44663873022214,0.41522612433459644,0
17,0.4216008144140582,0.3782796230528179,0.33730194345353726,0.3547772539209729,0.35553410442080596,0.3840219495303737,0.3295470678386435,0.3390030227708298,0.3499819437708626,0.36749238001622603,0.3774275740786975,0.2872864440031367,0.2944985768674619,0.2743719592918749,0.3627302067415577,0.40045248175530956,0.3938724911052833,0.4039725790666837,0.2960068146330195,0.37160429049987354,0.34108721514132406,0.36127801276207067,0.3265254171603397,0.3177161674329533,0.37106313468006463,0.3978869854690147,0.41556373686500403,0.4121438060019185,0.36471755179495147,0.41535667286005945,0.447314726295451,0.4135780547848072,0
18,0.4192404232620164,0.37743740452778557,0.3338190563759048,0.35378130030085975,0.3529665370731675,0.38199422463901966,0.3279012518522079,0.33639025895123575,0.34702989239033755,0.3650566358775513,0.37553808223442287,0.28609951641174775,0.29351047016888276,0.271326289374278,0.3614190752719289,0.3997237732762241,0.3911426311426552,0.40209088936190274,0.29440036502314154,0.3706911341598594,0.33762084794496044,0.35955911084541964,0.32416522960302335,0.3176429568914685,0.3699903754863539,0.39826311798267505,0.41554962347430313,0.41203746443437794,0.3620485172220349,0.4116584226684732,0.44546489468615247,0.40928377955598677,0
19,0.4140956082937264,0.37426623235210077,0.32811940904658904,0.350282565872374,0.34813613251387154,0.3770893659668906,0.32420271125926275,0.33136817116241307,0.34138352263906097,0.3602995524845446,0.37118134700086497,0.2828991839240211,0.290623602790813,0.2664031340637739,0.3568215636555454,0.3959646383127572,0.38560736071409607,0.3972770585204115,0.29069156431565185,0.367411193145042,0.3314859256804897,0.35534218417799934,0.3196162708706744,0.3147129060509858,0.3664296439993177,0.3955211062416515,0.4126886389035235,0.40957374721541856,0.35632413771811833,0.404870129024901,0.4400496240998653,0.40193995925916404,0
20,0.40560911908378317,0.36802061148665566,0.3197296697675606,0.3439865402527339,0.34029022182398855,0.36893353307525445,0.3177452034415223,0.32365149662461207,0.33294120330204446,0.35273629276511537,0.3636511672362393,0.27734107043771516,0.2853813754745053,0.25968011002244773,0.3486622313624488,0.38880629433015484,0.3766682110515777,0.38879231329164377,0.28424370831849716,0.36108061463063,0.3224201664329638,0.34809137792612255,0.31268262079368564,0.30830303374032025,0.3600936547573618,0.38893396881391196,0.4064592219960444,0.4039913799704207,0.34739447541713275,0.3943424278802449,0.4303547374327123,0.3915923395508959,0
21,0.3930856055941848,0.3578417201420942,0.30818788238769496,0.3342409494502045,0.32934704700978884,0.3568709736946708,0.3082822702329111,0.31308533396012206,0.3215335517347723,0.3418996534818303,0.35292199044357625,0.2690467478212596,0.2773927153216516,0.2509263609745986,0.3369681496857781,0.37751271771537354,0.3638717456995839,0.37608793691391357,0.2749270805708283,0.35106778369432134,0.3100333883390812,0.3367544248231746,0.30298261054153175,0.297964472608983,0.3503143249330578,0.37816789157052877,0.3962050032580455,0.39479190454340485,0.33513001664680225,0.3796995672182498,0.4157720823333078,0.377639990873459,0
22,0.37622760250844284,0.3424163649022509,0.29315207457921083,0.3205867617369125,0.3153348997382455,0.3407937752118187,0.29548421474815967,0.2992322468694261,0.3064266990352127,0.32724168463041287,0.33877098333495254,0.25756300948475147,0.2661091450245407,0.2398309410836663,0.3216092805927586,0.36114640764785566,0.3468719116525625,0.35907109797077147,0.2624935720931933,0.33668983836241995,0.29416244899469923,0.32067485060484247,0.2899834560141769,0.2829520425720974,0.33590950644231826,0.3621372218993287,0.3812465970797365,0.38158195621982777,0.3194416700207524,0.36030878654449344,0.39563616963903664,0.3593852202188589,0
23,0.3545464422624883,0.320626307045351,0.2745204560143995,0.3022472618162841,0.2980154284299954,0.3199780120753511,0.2787567608452393,0.2813796206364616,0.2870504719689987,0.3080810456468892,0.32088314468022516,0.2425381712798188,0.2507912625190965,0.22587911512265016,0.30235238342406345,0.33902078698798177,0.3254708493742069,0.3374930508100604,0.24614681904789038,0.3170987415713162,0.27477961403800805,0.2993571782224997,0.2728248655676233,0.26247246963137233,0.3156779533028495,0.3401200215580677,0.36025277313604115,0.3632809948232938,0.2998601473257446,0.3359890138040703,0.36874837381202297,0.3365059356297323,0
24,0.32716195167236134,0.29216470765445796,0.25153898425875115,0.2780903433170092,0.27686105226129265,0.2938708595690996,0.2575459045514361,0.2587296941200373,0.2626383000062751,0.2840253512942264,0.2988539493170362,0.2238478659478352,0.23076837328820898,0.20831864867020283,0.2789821054199966,0.3099011194201418,0.2991234187527917,0.31128595056440056,0.22520283349686102,0.2916504709083538,0.25159132414376983,0.27238985510682484,0.2504777735250284,0.23639350918625673,0.28849459959953955,0.31120120075488816,0.3319205416671955,0.33856908779012923,0.27597182215591926,0.3060830294716306,0.33385587455192284,0.3082508947508918,0
25,0.29313818988935364,0.25671709295740613,0.2235337399356673,0.24721344913239765,0.2514109271880054,0.261688589798075,0.23135364788692522,0.230227270102268,0.2325688455329058,0.2545456682449468,0.27188151276634825,0.20119770769537498,0.20518066871859206,0.18647216084187312,0.2508980025764314,0.2728554898230029,0.2676468836056368,0.27984688445703615,0.1994629934288941,0.2596283236798778,0.22390001466575835,0.2394943547793246,0.22195921539439387,0.20539160050285515,0.25345729793348465,0.2747043310001595,0.2948552391279005,0.30552763020140317,0.24674734595320988,0.2698929695618316,0.291146140166142,0.2739145039062341,0
26,0.2514922994142,0.21431858557234387,0.1894762148382656,0.2089181267075276,0.22046204939029618,0.2226128844934957,0.19908291466293515,0.1951672823011689,0.19596365012076206,0.21884872077669623,0.23766998239912884,0.17379868642440063,0.1730662188544041,0.15931892167636602,0.21665927155585762,0.22756353892997178,0.22984146113763002,0.24179228969523023,0.16859153026169985,0.2203913765773859,0.1908232951320551,0.20050468958968135,0.18669058066236438,0.17053337297214421,0.21019292552334137,0.23001032097874335,0.24780942553936108,0.26177135136218493,0.2108497385686074,0.22704241736110156,0.24106103392383232,0.2327361680010696,0
27,0.20080283271316038,0.16591696402761752,0.148696802569875,0.16282337291826443,0.18087582913247244,0.17547771548895583,0.15921730153933059,0.1530160206441538,0.15194862235468515,0.17539645749738617,0.19292976231176567,0.14034587701276796,0.13401994464282943,0.12571284921827455,0.17407707681449056,0.17440838729149263,0.18343266104278363,0.1942593599855626,0.13208214005434313,0.17281881252917985,0.15119819545481772,0.15572318551596015,0.14498388688338035,0.1325501049523748,0.15973813458795796,0.17697813189041314,0.1907690499833096,0.205126516240633,0.16682934236877534,0.17738554535660084,0.18505069585085165,0.18469613677177898,0
28,0.140006584950951,0.11195183298251102,0.10129970904553455,0.10960449080800301,0.12897965715733795,0.11989287292719421,0.11024204196669289,0.10397904674583777,0.10096684628290954,0.12236391188895783,0.13445911976444863,0.09904250310523588,0.08887412267765345,0.08540239722766867,0.12117610586439745,0.11507590086108517,0.1260144125037538,0.13472127321612243,0.08949081122123466,0.11638103132102054,0.10415403540301363,0.10518994941853207,0.09828627988531105,0.09027156299677229,0.10507468192362794,0.11737067283356317,0.1257800823048109,0.13630407829250085,0.11369859633401853,0.12070218741132761,0.12505554507241387,0.12882211618675485,0
29,0.07021742073918752,0.054033857040141096,0.04960714199106113,0.05249974660802817,0.06422537154406317,0.05806608267070236,0.05361402090576059,0.05057443626289715,0.0468304586837066,0.060056291941712164,0.06480389637499996,0.04951697549754693,0.04127154992188534,0.041131609349469064,0.0595517906204847,0.05390322916620157,0.05970160654016157,0.06500628715445243,0.04255195589124077,0.05461250859841672,0.05135188541949932,0.05048796845511716,0.04846580457054095,0.0435512237571096,0.0498480778453685,0.055440205783794404,0.058763542992073495,0.06302214302263673,0.05417537822461052,0.058263394168598576,0.06216904326119862,0.06506409465810241,0
0,0.2806793701886264,0.2296884411306213,0.22930722308014095,0.19828943743842742,0.23082765236819303,0.24066781442917085,0.20353406432318571,0.20975637285258492,0.2010167986076066,0.22135300102449942,0.20188333705551534,0.17965431126922202,0.1823934943953967,0.1671619096770996,0.1818500697046424,0.23009945026208797,0.2107986832726328,0.24144100795207987,0.1676328290591463,0.22085752088342273,0.20731021368740193,0.22105209962758166,0.19188267667115363,0.16934887592895378,0.21899136542948838,0.22811794598752355,0.23321195396860753,0.21778231384031627,0.23820652715622714,0.2533571823371106,0.2555119312792336,0.27220473335659956,1
1,0.30707900463393295,0.2538207613002914,0.2501938760782218,0.21830086993754866,0.253530509305881,0.2675122201396646,0.22622972282032316,0.22906603341445628,0.22673843758023912,0.2459087433386459,0.2304223055054706,0.19775417796081096,0.20047751166015243,0.18487628231378692,0.20367286968114115,0.255259672980228,0.23322289776542854,0.26894787329553427,0.18665912835909101,0.24625320350817811,0.2296303862906647,0.24235014007182032,0.21285445210787637,0.1909827190380251,0.24246400579982053,0.2530065094637706,0.26129125669350833,0.24067372722135816,0.27332813878528656,0.2782573465353086,0.2828044037598304,0.30073414362019785,1
2,0.3205698505615624,0.26547272624609364,0.26245201989107864,0.23069002579342826,0.2656324300979557,0.2809816957404959,0.23824471813371964,0.23944536548221856,0.2405341490366051,0.25932483184298827,0.24493796230627535,0.20717012784970557,0.21167440496387793,0.1941304567953888,0.21583457126282382,0.2696281986402958,0.24296881972993167,0.2823713595236701,0.19636818278880888,0.25833403447543285,0.24120864002574335,0.25418246724995763,0.22266905370122952,0.2014175902259767,0.25352056026129144,0.2678187664776798,0.2769567538830877,0.2528443351584589,0.2884185865940846,0.2920486245126693,0.2976117040119851,0.3144921394191317,1
3,0.330180162972653,0.27420905709608867,0.2707195231617281,0.23815657485051828,0.2741746837231702,0.2895533417317315,0.2464603090167145,0.24710985674672212,0.25011194881037113,0.26820996780774603,0.2541197436384401,0.21290016402465617,0.21898886062704415,0.20083334769705363,0.22367412510778678,0.2788729628635684,0.24862803136477718,0.29219303630839405,0.20370414764960554,0.26617858827112484,0.24940183421246492,0.26296378151116356,0.22892276116319063,0.2090350002205678,0.2611279916780256,0.2777435436121219,0.28818061624752606,0.2615903627352621,0.298451923949802,0.3016965154471269,0.30727094148907297,0.3238992993974463,1
4,0.3398344959125464,0.28211498541209007,0.27854478076423433,0.24463636704454492,0.2819386707402643,0.2967385638644142,0.25341431513416646,0.25433501144898435,0.25843450985461885,0.27610884602535446,0.26150680054672293,0.2176130334365136,0.2253950022258667,0.2065101768128192,0.2307972700271966,0.28656898697581606,0.25416498844743574,0.30116461659118227,0.21052728660807796,0.27319240175200454,0.25692875059108844,0.2710410461174245,0.2343466068998055,0.21525484549650512,0.2682270748163629,0.2873664055057471,0.2982514193486884,0.2691576955810093,0.30738334947371393,0.3101252653003543,0.31537900815876924,0.3335204935549741,1
5,0.349130697492567,0.2902634306065296,0.28665427336599214,0.25100942984927815,0.2896383774738654,0.30372469420690934,0.2601201166030708,0.2616506870843019,0.265906021692979,0.28406346118414927,0.26844535838880723,0.22295315017972395,0.23211228731646272,0.21244398599412348,0.23787440193469916,0.29447031104726745,0.26013435878243074,0.3105296843746884,0.2164856607996502,0.2803047660516824,0.2641469928607085,0.27945178256067954,0.24027382849101256,0.22117052918235747,0.27558410600668953,0.2968956115795046,0.30849892658219563,0.2760547447647902,0.31577412209527966,0.3184493348346713,0.3232763735270969,0.3441463833441265,1
6,0.3576206855870018,0.29849895175332425,0.2954148056905847,0.25756636899964225,0.2974304102260259,0.31060257652241036,0.2669952212773954,0.26863909351838083,0.27311609460569053,0.29278169582898583,0.27557186343095974,0.2292875195556248,0.23872243090330453,0.21857937627786073,0.24525478639039075,0.30299339456059415,0.26671043939727573,0.31988719658807313,0.22255363440368747,0.287854571180744,0.27112630788167214,0.28836826400655036,0.24643871385038552,0.22706345685621632,0.2830699147532476,0.30645747461452144,0.31928470481193416,0.28319128348540223,0.3237983588127946,0.32669363829675596,0.33145933071818295,0.35471982552474773,1
7,0.365931694606434,0.3068516129927027,0.30390559155644287,0.2642050675648527,0.30496564690044925,0.31774730959716074,0.27430890883168496,0.2759140406042177,0.2799801714846053,0.3015199903267821,0.28368807211459257,0.2359519964024434,0.24547663320867696,0.22480305948795307,0.2521615382375298,0.31189736281452035,0.2733721452572227,0.3298067872283552,0.22859707920032626,0.2951547962283095,0.278064938823651,0.29703107736896606,0.2529060347204195,0.23336875411730312,0.290925912198776,0.3151802259902508,0.3299347198871231,0.2897222371651787,0.33137247557965227,0.3350197447632142,0.34069124354373553,0.36485061724861456,1
8,0.37430946673523957,0.31528396703502537,0.3123512755351251,0.27079617436156184,0.3122873246318055,0.32514083151776957,0.2821853528104128,0.2836168421898902,0.2869274046481525,0.3094937990331756,0.2913242341215633,0.24222882856335062,0.25209103267663285,0.23118855283198902,0.2587861169136739,0.3212963892667375,0.28032755763871015,0.34034943296257236,0.2345597084850254,0.30268140564648266,0.28581391547470586,0.30570853410989357,0.2594159521473167,0.24008657020601473,0.29880323398663905,0.32342776458937794,0.3404680230403431,0.29605165434140657,0.33860323770052614,0.3440458421028198,0.34999292932384224,0.3749849288758274,1
9,0.38312203815265117,0.3235112897899762,0.32130139670965085,0.2774876592261029,0.3195540093653977,0.33248794630534423,0.28989450438279407,0.2914245159734374,0.29419354804569187,0.31685064872238844,0.2985893012829612,0.24790930772854827,0.2584106907949898,0.2374755313836121,0.2649011137924712,0.33119246580680084,0.28710748866001035,0.3511226348413609,0.24038206848157093,0.3103226365045454,0.29368442238090514,0.3135581089902208,0.2664057153445312,0.24691196197696946,0.30658758771184424,0.33140100949480056,0.35005852870883836,0.30212945745482883,0.34598132605749204,0.3523864962269331,0.3592732832303942,0.3853565027544532,1
10,0.3916120492052101,0.3314858284398558,0.33077677135407385,0.284073170449613,0.3269444371993354,0.33955254535380386,0.2968598979895337,0.2991598920798446,0.3014034149740398,0.3244865433886345,0.3058432449166928,0.2534074455943164,0.26459647096127104,0.24394902055658474,0.2711896258399972,0.34102992021640716,0.29354126430230576,0.3621683408220305,0.24608003494293185,0.3180397931196577,0.30196802857299015,0.321073062620818,0.2734871921994737,0.25360690727691143,0.3140990499724502,0.33954366471636754,0.3592318819959478,0.30858640753113753,0.35341258548839816,0.36037166481274857,0.3676737232456203,0.39580332188394185,1
11,0.39999723846449003,0.33862510982532024,0.33948300889075395,0.2906761874554209,0.33416350539459727,0.3460404548405717,0.3035145459462617,0.30616031230732715,0.30814464691332544,0.33157457414673314,0.31279247664694926,0.2588710251539509,0.27071680302991075,0.25033625381264824,0.2777610118060918,0.35057521369858785,0.2994012822696614,0.37349032744099503,0.2511657873406501,0.32514025913280753,0.3099154983322235,0.32853694361975194,0.2806380628504951,0.2598831219745634,0.3204772430056755,0.3480734238625824,0.36845247497713846,0.31566137793805066,0.3601488718041105,0.3674055687040615,0.37530883618971933,0.40616693572023854,1
12,0.4076973307486249,0.34554697057196226,0.3471105112951405,0.296700538637284,0.3413639565770115,0.35122635430327975,0.3098757340573679,0.31284081857740775,0.3150182192764283,0.338424431225508,0.3192429379600625,0.26398637874414244,0.27639857584149363,0.2564616293223516,0.28440631062234345,0.35987986488718826,0.3043261638624205,0.3844629472630382,0.25562568740761044,0.3320743149335491,0.3173726947357251,0.3351909303356369,0.28792461813768355,0.2660501318353911,0.3261012735170131,0.3561040423748502,0.37727405398868874,0.32278904402919467,0.36595522931086594,0.3739819034452101,0.381876775338464,0.4155611516552586,1
13,0.4141368604156366,0.3517192263625324,0.3539335794621417,0.3018782075449687,0.3474772074982545,0.3554628217472882,0.31571451870945144,0.3185367313959013,0.3215443508660073,0.3448635763528862,0.3253756713823186,0.26896405550905744,0.28132951440835724,0.2620797788644349,0.29042471949693993,0.3688316994291401,0.3084777739539846,0.39533783384288923,0.2592500208250175,0.3381957348038802,0.3239753648665486,0.3408956371024439,0.2945186889395938,0.2717310724552055,0.33125173941464653,0.3629786674271643,0.38517449667431686,0.329078111818841,0.37100126651442167,0.3797573661879692,0.3873003045359116,0.42404918408302583,1
14,0.41909934382807557,0.3565677848344671,0.3599077994405104,0.3058246444071452,0.35309866654027705,0.3585711175137433,0.3207379605309063,0.3228737585113044,0.32707243958463333,0.3506845924093723,0.33062447984642584,0.27334436911358595,0.2857148184041432,0.266825611113163,0.29562315104719206,0.3775243747839554,0.31157137494989084,0.404967940643938,0.2619853048547525,0.34297155830008785,0.32936057604598423,0.34593809538481024,0.30013357528632584,0.27667215272460094,0.335352808689261,0.3687622972117736,0.3917420862536869,0.3338978413800748,0.37500898876886574,0.38398091944483453,0.3915127026475552,0.431056334157671,1
15,0.4221058740484895,0.3591434433387216,0.36455047645467586,0.3085807984360006,0.35748818126589943,0.36030108588104315,0.3246570662463726,0.3263030007854713,0.3312414434487592,0.3550279753924405,0.3348810429608639,0.27698419460656676,0.28915812505601196,0.2707078690889566,0.29957123134709746,0.38612241188820084,0.3138768233476863,0.4137558932033971,0.263832309857872,0.34625039807044933,0.3336753357877036,0.3499065606945016,0.3052549239848778,0.28051558434544904,0.3387225162372627,0.37353567723410624,0.39663919295073924,0.3385584555085445,0.3775545770944146,0.38662618572389645,0.39465829332315494,0.43624204667499283,1
16,0.42310585371881504,0.35969510857757964,0.3669438027008481,0.30999906759546475,0.35955491393626005,0.3603162969051555,0.3269249668055101,0.3282672390268408,0.3342109939301611,0.35777632074047316,0.33740761596528385,0.27950296434458005,0.2911516939160674,0.2735996392928361,0.30191536285797216,0.3939737388763196,0.3149199376406657,0.42148547715967877,0.2644215288120079,0.34819967299162374,0.3364518740840573,0.3520824728830282,0.3095000318706952,0.2836496294620919,0.34045375464611316,0.3768571114186898,0.3996522283286529,0.34265062188506107,0.3785674599208013,0.38756457060430477,0.39641414795154784,0.43989697397960403,1
17,0.42130101428398603,0.35800718201695014,0.366500133624536,0.30956092659948475,0.35972110847610705,0.3586495139723196,0.32725914341738926,0.32867621594976776,0.3350301410568209,0.35876673970462925,0.33783421211289777,0.280478959760752,0.29183955572087406,0.2755140242100623,0.30242075950611086,0.40013275503388757,0.31405158393265453,0.4271664868687388,0.26357500131345357,0.3481670964951669,0.33705844476941615,0.35193716781667483,0.31226487805213254,0.2855243809604162,0.3400830117443477,0.3778229911313764,0.40014437719574647,0.3456797482076871,0.3776552062358042,0.38630178993297204,0.39606443760407267,0.4415802992666275,1
18,0.41667208203465256,0.3533624074174478,0.3625377179169258,0.3069058848468875,0.357277652275664,0.35481077038478115,0.32547237949023416,0.3269713425431733,0.33328340156584246,0.35692957163901645,0.33573244190615936,0.2792247874523197,0.29107212102268,0.27619024043707296,0.30052525021916315,0.40364475446173703,0.311207938926754,0.42931415209712404,0.260645215851304,0.3457516385783107,0.33477557161308513,0.3493112030376973,0.31285917961716286,0.28588824044351685,0.3372941913599239,0.37553863397159437,0.3975593593694048,0.3465226086268228,0.374374962981032,0.3820907617224536,0.39250623255950473,0.44086314521466885,1
19,0.4089713066705795,0.3459332188203328,0.3542915612701368,0.3015691876562834,0.35234528752810046,0.34801059117244215,0.3211611618469782,0.3226195276182404,0.3286179229821229,0.35204065705892384,0.33077203096338187,0.2758031170366487,0.28841272900353804,0.27506467407298585,0.2962335441443537,0.4039231453507041,0.3063984273935836,0.4270098147719757,0.25524395629754015,0.3406658482318456,0.32898095896272256,0.3439165748418603,0.31129887837586157,0.28403241500134135,0.33158172469854147,0.3700141692811035,0.3916652289796966,0.3444894598844388,0.3687402047613108,0.3749909740674588,0.3852271787560827,0.43718687066975337,1
20,0.39798888740127936,0.3358627221535808,0.34181115700685205,0.29337979191998825,0.34469183653720276,0.33831050810458946,0.3137251148726811,0.315436834756811,0.3205148719816595,0.3435184572219831,0.32256409122856694,0.26997732848775097,0.2835780722522524,0.2717127677137623,0.28873587190577077,0.4001511413974337,0.2991263713143624,0.4193132884158819,0.24716193082529136,0.33277080479106447,0.31928606763381895,0.33484215824239494,0.30738656041818496,0.27906263030357803,0.32252883496696033,0.3607609300573905,0.38218816810561784,0.3393283548853074,0.36041970100746645,0.3643470908212191,0.3742589333551074,0.429854422844243,1
21,0.3830319711716659,0.3224218557646211,0.32504686677638295,0.28212562345305053,0.3337883080178289,0.32560448476419845,0.30261424052255625,0.3045198465269398,0.308583612389353,0.33113413345994946,0.3103221370485464,0.2613023295225298,0.2763805638557081,0.26563933742160345,0.27787803759760243,0.39056833589856554,0.2887840328195817,0.4050940540381832,0.23623267127108633,0.3215988148531596,0.3050214570341462,0.32138105259726657,0.3004635719528104,0.2706409020435753,0.30936009138521803,0.34771257261571614,0.36858331083250834,0.3302854755774491,0.3487722174281757,0.349776491205071,0.35942579700713717,0.41785496281225065,1
22,0.3634020735519534,0.30539452895926433,0.3036868003167412,0.26747843765598295,0.31944166295539833,0.30930804307282445,0.2871001503531363,0.28905540436734684,0.29242373754066653,0.314375191560169,0.29357034845615043,0.2493743758578818,0.26585516381928054,0.25624425207327967,0.26318178145556587,0.3739356893330346,0.27510890054603654,0.3831767845176796,0.22231956476272122,0.30645056626103073,0.28623118928747476,0.3031435534126149,0.28958480613739895,0.2577472304924252,0.29157259235045674,0.3302026149920246,0.3500586065538047,0.31682762894863176,0.3333590333572202,0.3302900909659141,0.33960292266253844,0.4002415342506441,1
23,0.3384364893347931,0.28415943022481677,0.2774523328413395,0.24926677721650617,0.3004944890659791,0.2887048883864659,0.2665060617117013,0.2685972811453963,0.2711735908775146,0.292688004939101,0.2716920710023405,0.2341231796946096,0.2514827321989405,0.2427732012530577,0.24429278405977428,0.34949117432620397,0.2573324831687638,0.35273912754554454,0.2052370286303892,0.28658505752941094,0.262863156139025,0.2798971276776871,0.27323066323592426,0.23956679206784268,0.2685685992778655,0.3075642565620667,0.3266172819250623,0.2977521051826408,0.3130049543572624,0.30524415611522737,0.31407899408090006,0.37593470300700754,1
24,0.307522360617836,0.25793228426617615,0.2464679940079589,0.22741408082110928,0.2758500618647263,0.2629191079448462,0.24026452142613025,0.24263696277031746,0.24455579738475547,0.26568865419239523,0.2446238335747607,0.21500494943110457,0.2323837107331549,0.22385719056527315,0.22120562435402233,0.31654222012951927,0.23480768366370608,0.31384051132979335,0.18478500860079863,0.26113311908973735,0.2351648746528186,0.25132530138788634,0.24981499754570147,0.2158762179251936,0.24021908136730094,0.2792129466341328,0.29760164469059924,0.2719568494015024,0.28670755857449975,0.27453036401791764,0.28255679325786665,0.3443721306196537,1
25,0.27052758875345084,0.22612645894947495,0.2115069831385784,0.20171468903787662,0.24435009453205012,0.23013024517018393,0.20825748153272786,0.2110312583355605,0.2123478306369796,0.2325839899611001,0.21229366857310839,0.19143728857727674,0.2074964466124213,0.19786377896852878,0.1935229998047876,0.2751388000193442,0.2066525712799779,0.26708660742893564,0.1606878405663367,0.2295045076696262,0.20310531462606415,0.21765248810316665,0.21876486450496993,0.18665196559770328,0.2071627762874564,0.24458716590740262,0.26238111852330975,0.2387630752964082,0.2529450716711818,0.23733866280355737,0.24493630123590782,0.3040598908512325,1
26,0.22666845618645348,0.1883768111064592,0.1726488115213788,0.1708690156788991,0.2048140200282994,0.1895600936458282,0.1703635210431656,0.17346287293710705,0.1744134985851064,0.19213449036760455,0.17483027498545164,0.16272112777920056,0.17568654795062902,0.1636171567289636,0.1606759462381987,0.22601954067147811,0.17214136182397086,0.21401162253387007,0.1325256104701031,0.1907367500942921,0.166562291750588,0.17996653550115094,0.18026286134333533,0.1525372114444632,0.16967804392187233,0.20264313997133532,0.219611977341444,0.19768925049145122,0.2105913236165785,0.19352926955728603,0.20109728278342098,0.253869782921886,1
27,0.1753457747873524,0.14425082796228264,0.12991444320409368,0.13353527724050462,0.15653500121135183,0.141953708009484,0.12709375724454386,0.13039772758290827,0.13102520567099651,0.14454780740056228,0.13264410145585617,0.12788113061770193,0.1359249433626628,0.1217986862713371,0.12244210449651775,0.17012669057191193,0.13112145094233152,0.15652823138456676,0.1005426390349073,0.1447402014048936,0.12585253569199165,0.139068720759494,0.13580770176054804,0.1145962769705098,0.12801421182064854,0.15290872873709635,0.16822862073781164,0.14964321450637538,0.15958937016720046,0.1445942476072148,0.15168107965121946,0.19416733177228915,1
28,0.116678318920223,0.09461255777876836,0.0844172999866039,0.0895135033838296,0.10141704038690737,0.09001089251023178,0.0807858114196902,0.08384209125883249,0.08382742549909039,0.09194747785536253,0.08675207266897926,0.08658956667823633,0.08917222346651975,0.07579446615593682,0.07971687458232928,0.1093217491601534,0.08493807647840272,0.09759626996281208,0.06548305156788613,0.09319164712715591,0.08171294231641076,0.09423732145370174,0.08789280636674283,0.07404740228804785,0.08307187569935727,0.0977558701096319,0.1093590069755378,0.09681317127043713,0.10242673316978193,0.09304563634204323,0.09850545799775862,0.1268969145684571,1
29,0.05457067072114829,0.04355661927461014,0.038637709818139986,0.04160812276617922,0.04513576443667658,0.039632070019535885,0.0360594159801241,0.037965585059622685,0.03758524151294463,0.04050768800604069,0.040403494187505586,0.041099844553798906,0.0401986819934925,0.03240776992470866,0.03642773339644401,0.04841354904163962,0.03797534578796604,0.042431879687640964,0.02998943560494815,0.0414086547079726,0.037215702161445596,0.045517074626599985,0.03999351981654892,0.03351304754434206,0.0377922138640115,0.043438567657663546,0.04926047104370227,0.04384513453650387,0.045411431249184495,0.042880276253731565,0.045730785657355076,0.058414234806478546,1
0,0.2522276559057712,0.24729739455790112,0.21851204197882831,0.19876545299856507,0.22746960740208286,0.21486988260379059,0.19904017474318075,0.20423669493333005,0.19038723865282323,0.21258330007090556,0.20806218347653543,0.18077060072822615,0.18577466345996874,0.16313139643333144,0.1741067118554381,0.22081110929057296,0.21384608770319333,0.22795561959106347,0.1737987068961509,0.23639348251654543,0.20250836859082152,0.20989139987933367,0.21893490214413844,0.17256983611713606,0.21507875053686068,0.2286213671927282,0.2258292894911264,0.22486110034780682,0.21330888521272773,0.24904715258810364,0.24926518230403027,0.2677582108474408,2
1,0.2785689983902822,0.2745739581390889,0.24506740429605323,0.2219652167398717,0.25279477622712315,0.2451110903631093,0.2228393955628852,0.22707070443512065,0.20988887906638226,0.23423701941155486,0.23562247518217092,0.20320497909995128,0.2102900073150659,0.18114978849366248,0.19518578969334505,0.24640394692314435,0.2462781164973842,0.2597515612910658,0.19440502481562177,0.25863646754452985,0.22438400842808992,0.23652207070481665,0.24402828287085535,0.19486110204232565,0.2383545093993636,0.2531545798731659,0.25301739729203626,0.25571128494099354,0.2511753065469772,0.2703577996686942,0.27957949871991084,0.30123371452186537,2
2,0.2932762177080204,0.28575306713283494,0.2566220913613371,0.2353801030665376,0.26597975180780514,0.26371688778143787,0.23507110378414398,0.2398702325636165,0.21986697571790081,0.24537038539695372,0.24953985255656716,0.21457838761380138,0.22398023299935094,0.19038141901739059,0.20609468220608598,0.26086147689384587,0.2589763954477989,0.2731823453454417,0.20465687180196476,0.27013932869202995,0.23795123529597087,0.2487947491971393,0.2554345642262796,0.20527037734963854,0.2487162309574783,0.2683509685703581,0.26731566308733107,0.27065491536793573,0.269851562967287,0.28045457308857824,0.29566462563009627,0.31981035218359605,2
3,0.3030203388882747,0.29288842557502726,0.26348492430207376,0.24413204347460063,0.2741932712821083,0.27627525536550174,0.24374436848312125,0.24755261303204848,0.22755319221906722,0.25387132825184594,0.2589669664943164,0.22210840381044838,0.23326307524205114,0.19662287076151502,0.21313234397431724,0.27106602710492156,0.26502200139431126,0.28065860363271317,0.2110339534673666,0.27965501655845354,0.24736991832916638,0.2561682377953333,0.2622510105721346,0.21246878442343958,0.2552151586351437,0.2784043902374193,0.27657101964192826,0.28022178228026506,0.28044500400126027,0.28677514643811614,0.3061029213359321,0.3311539470994295,2
4,0.31191888546277446,0.29980974713981556,0.2694182975569665,0.2515578207180366,0.2813700985615082,0.2862986856527156,0.2512498907882771,0.2537135670571776,0.23478178866511487,0.2619288757502813,0.26703213474926196,0.22876883774719511,0.2409590627385192,0.20171342040909032,0.21916781653500667,0.2802538087278156,0.27022027664047993,0.28698167577380734,0.2168745449554913,0.28915553984556536,0.2552324744870612,0.26220418983844374,0.26859469521239066,0.21902186536148954,0.2608499046322448,0.28702620174940274,0.28497548094538516,0.2885857758135273,0.28888520016973573,0.2931307879884897,0.3149927870948191,0.33994522272452404,2
5,0.32025200142335913,0.3068926337945552,0.27507833203599996,0.2586395035062668,0.28847834508349285,0.2950274714553595,0.2581946600281075,0.2598167766829071,0.2414559944186569,0.269689727763263,0.2741523499421923,0.23498511543005407,0.24799367047014145,0.20650203299621456,0.22526777952388347,0.2885248446448153,0.27560247410876165,0.2935253839827199,0.2230919574704933,0.29854892413933604,0.26255685627749387,0.26844228988707836,0.2749924098000281,0.22524202044341513,0.26695536810050946,0.2950624403069621,0.2931748707333768,0.29677229273822897,0.2968466396990052,0.29937109107566084,0.3234162634470377,0.34821594326727645,2
6,0.3281078035632231,0.3142465363420042,0.2812176814442997,0.2653379046439339,0.2956644420796597,0.30332465291605204,0.2646935538329608,0.26601791204846403,0.24801470826080194,0.27734330157752557,0.28081670379051793,0.24074361735471395,0.2550763292286613,0.21134207464681293,0.23136138525853453,0.29624316115005955,0.28108011118046816,0.30046342991282066,0.22924197756136902,0.3079330962377929,0.26954463379102833,0.27537129348725964,0.28167474581277396,0.23169526593267303,0.27361104832945626,0.3032074456870327,0.3017111974964152,0.30473720596423437,0.3046160165820959,0.30571784679877034,0.33175363248228407,0.35621426993252703,2
7,0.33584435918704214,0.3216352045110885,0.2879686411547614,0.27189670137657457,0.3027888867752154,0.31155980269563105,0.2710756241795708,0.2725106876814211,0.25484109701815266,0.28465092942415404,0.28798858932571025,0.2465047071026167,0.2623233368021651,0.21649224221135258,0.23765129638030058,0.30373622949516055,0.2869425695329913,0.3076964947497992,0.2351340175272337,0.31697379664565883,0.2768658800863287,0.2827280885788579,0.2885658168788241,0.23849769513443242,0.2802747470326351,0.3112222092472189,0.31025036409214035,0.3126171654797937,0.31307301098334334,0.3126242537397057,0.33989764600356454,0.363880358680745,2
8,0.34352593586904495,0.3299421117185182,0.29496325200619034,0.2789680602328709,0.3102750839474451,0.31949156496650405,0.27779421375844615,0.2789808065435248,0.26185628143371553,0.29155083035294144,0.2957197382795249,0.25241055218805,0.26934331358705504,0.2216501725732686,0.24398103430116083,0.3112180132820459,0.2929300946807103,0.3148528775203832,0.24128244307730956,0.32615060882067,0.2840904269722955,0.29047703289397353,0.29578076352330585,0.24545428181629214,0.2869035602051681,0.3184488999433828,0.3185958859172584,0.3205227416873499,0.32233664094321457,0.320254879565528,0.34832768238768036,0.37108232058277396,2
9,0.351256741486397,0.3386541978498794,0.3018512561314076,0.2859633769071866,0.3178128356977941,0.32716267193934856,0.2846972339063027,0.28554113847861234,0.26883037970275403,0.2980619821991111,0.3028881851666594,0.2587612474956977,0.2762548550156748,0.22694148819352686,0.2503448267364779,0.3189635634160487,0.29903757108388124,0.3217898979092747,0.2476229515992005,0.33562368750820243,0.2910648300322219,0.29831927892631177,0.3027382248264551,0.2524911935182686,0.29333696764635275,0.32530553434280535,0.3264921694757033,0.3286346039001621,0.33212707244094886,0.3281348194855832,0.3570646925677428,0.377398335867663,2
10,0.3583823004199254,0.3474685004683371,0.3082403883760086,0.29288596962147617,0.32459435637154976,0.33445099940432915,0.29152972556568385,0.2922660273114024,0.2757117878053377,0.30461532209059117,0.31015017803690725,0.2650528554891054,0.28315521398170446,0.23233098998225904,0.25669144269587735,0.32674575136404127,0.30540453861167743,0.32851197031801105,0.25402580946363773,0.34537323765875144,0.2981235536998167,0.3059247614230079,0.3095144938690484,0.2595610651886894,0.29933520556950893,0.3320272016291241,0.3340779720807635,0.3368313622296159,0.34223036425086095,0.3359193187671801,0.3655684785899753,0.3833534968293546,2
11,0.3649895600589289,0.3558107912166001,0.3139021686724879,0.29970135206441423,0.33093184465447795,0.34137358243820864,0.29819536244852013,0.29830774811461946,0.28255430210181753,0.3107913379415921,0.3170938511769027,0.2706161807083272,0.28993605249635584,0.2377360992999116,0.26276171399517667,0.3342638734241021,0.311719098894955,0.33496349046789836,0.26027824504649966,0.3548067194599146,0.3049167099844381,0.3132000464699528,0.31626860206605806,0.26661327736501056,0.30532812194551695,0.33861653041065654,0.3414758544297448,0.34480143619920095,0.3523230625248608,0.3433004262077065,0.3731908385895801,0.38960473071049445,2
12,0.37137004145651786,0.36354540797876794,0.31892650249036747,0.30652435805372247,0.33682431664121787,0.34764203068671334,0.3041265982837582,0.3037063926897622,0.28926311169491786,0.3168101622962622,0.3234034590589968,0.2754720841779842,0.2962259378440706,0.24292206907538014,0.26851092861563164,0.341004967029303,0.3179128447115219,0.3414190564610013,0.26619322275921825,0.3639511696839498,0.3113417442359084,0.31988620875416957,0.32253530544548714,0.27316308271521494,0.3108717338292783,0.34473793053881463,0.3487108252268187,0.35258389733799533,0.36232935839423297,0.3501353736077808,0.38013333577778946,0.3962616330205399,2
13,0.3768625578735615,0.3701083713750078,0.32368976644444875,0.3132472580409323,0.34213781251230757,0.35300034622902365,0.30938491077897395,0.30882794600666486,0.2956832382363232,0.32219648853817173,0.32922226428221224,0.2795484319233918,0.30205675157066614,0.24792510460120248,0.2739281254368562,0.34700896151420874,0.3233249390408925,0.3473278322576001,0.2716399146342644,0.3725296109203381,0.3171384178178327,0.32621163665931135,0.32858270941943113,0.27909380777042175,0.31589559705432696,0.3502177675307831,0.3553601041807064,0.3596109473616464,0.3717162047874924,0.3561415876723092,0.38620838670877394,0.40295248085625546,2
14,0.38101647045929093,0.37492836170408306,0.3275962754328743,0.3190971700734056,0.34622961980318245,0.3570515707901758,0.31359179811918725,0.3136225313938456,0.30123821563815717,0.3261515505668535,0.3343771828287751,0.2829125605507342,0.3074440948023822,0.25263687204019514,0.279014363624235,0.3522035019885578,0.3277485868794171,0.35195837916354045,0.27617003974372756,0.3798324699303234,0.32211297520190996,0.33195408214330135,0.3339752600429784,0.2837723768540837,0.31992522636679244,0.3547854720749049,0.3609356629235243,0.36543527474413334,0.38003041930844844,0.36040064916630105,0.3911392884075883,0.40869915479039903,2
15,0.3839099515748926,0.37820690484974434,0.330386336696452,0.32387069531142487,0.348988833034608,0.3592921182831828,0.3165011156120691,0.31768580245693034,0.3057189242168631,0.3286023996069157,0.3384306721949999,0.28514680564377615,0.31214811486377403,0.2566721702763056,0.2837745902974041,0.3557873840506235,0.33055866450897364,0.3547619497993451,0.2796589496547732,0.38524496642508665,0.32624107069786434,0.3360758050353557,0.33770185397057606,0.28698886608716817,0.32280012918499024,0.35820145501638684,0.3649525469257404,0.370045913417155,0.38734950720595696,0.36334916423132224,0.39450395081189976,0.4132627220957956,2
16,0.3848753759267474,0.3795884573307812,0.33168919817075626,0.3271434245374542,0.3502449318126844,0.35955688255678536,0.31787766823336944,0.32054349307571245,0.3089300975646923,0.3294351567978082,0.3411038279969391,0.28596304667746036,0.3159695617286835,0.2596270593347961,0.2876926037455443,0.3576557389775029,0.3314331694772971,0.3557535661506772,0.2818585903251014,0.38878289220065854,0.32933064398830514,0.33812526412541843,0.33917541590922384,0.288976405425813,0.32396163929200633,0.36004769274014603,0.3674136123207982,0.3732967075277308,0.39322720335032396,0.36428593164838374,0.3959271635037543,0.41575287351576834,2
17,0.3833313584822912,0.3786259003673215,0.3312921196182491,0.32858345957921314,0.349818128837743,0.3576485478376414,0.3176446659139108,0.3218341876583411,0.3107489171274919,0.3283363420725232,0.3421411996440706,0.2851434127862793,0.31867096917499127,0.26117976963138106,0.2901309484703312,0.3577079582823242,0.3298619978366412,0.3550223951440369,0.28245968497610763,0.39024944287699925,0.33093764081647087,0.3379560595026227,0.33840238584255944,0.289523867316419,0.323458480537415,0.35977934759637276,0.36758553837102137,0.37432467053993557,0.39740664124930214,0.36267508557042855,0.3953605503767827,0.4162608906520572,2
18,0.3787977739913446,0.37512388067008107,0.3289619615529342,0.32765317673644,0.3473986530699698,0.3530782521131668,0.3155380769695689,0.3209246318702089,0.3105750411084582,0.324960989032321,0.34107424666184005,0.28227316097757366,0.31989484126558265,0.261097705688966,0.2910400595653101,0.35547177857470075,0.3256072992216194,0.3524440080437736,0.28099890169163827,0.3888519350876878,0.33083274567258336,0.33524910250559,0.3355040419987277,0.28812254258070225,0.32120091255684535,0.35699056078228714,0.3651880478887756,0.37267007521876433,0.3991869912160753,0.35866560013934695,0.392587973368608,0.4144269087093377,2
19,0.37093319443541917,0.36839799519991084,0.3241805028664397,0.32406944058445575,0.34274910823519417,0.34549342092900837,0.3111588954912794,0.3176279771842138,0.3078353800746183,0.3194019416733477,0.3373506237850957,0.27721906945354596,0.3195106138002695,0.258907181076027,0.29023330699651023,0.35062554510645705,0.3186654229140336,0.3477147436271304,0.2770276012286226,0.3840819147612274,0.3288765472170401,0.32999062489056546,0.3300080249602851,0.284523444002689,0.3168691792842433,0.351717627480869,0.36010688224253873,0.3677218826086962,0.3980060440007916,0.3519303578834572,0.386890351445015,0.41011071156309137,2
20,0.35954905669882176,0.35821063806645925,0.3162414813966085,0.3172679145573811,0.3351589147012536,0.33439583750257473,0.30397046761513674,0.31179625186795135,0.3021223016287098,0.3110653439144325,0.33036032080298516,0.2698687609122387,0.317129105768217,0.25409152104581956,0.28748330742048317,0.3427547131757847,0.30857919992156474,0.34058931439745055,0.2703168336905459,0.37546954206414257,0.32466826912826796,0.3214555034934847,0.32157099673636935,0.27825822200877565,0.30986130057665423,0.34332849309855645,0.3518812496976651,0.359118958910599,0.39328154578020214,0.34202000808498656,0.37744682993560996,0.40245628777599357,2
21,0.3442483465546221,0.34399145108958323,0.3047617340091421,0.30676797101867787,0.32386343461554473,0.31958647554213876,0.2938885347835821,0.302871277571951,0.29271618483129064,0.299439790732763,0.3194497794363118,0.2596951129703823,0.3118406083183265,0.24625691028640054,0.2819785601722735,0.33132040334063156,0.2949958541120067,0.3308550075589289,0.2606994468294506,0.3625223292258426,0.3176218028178209,0.3089951453673725,0.30964275977651445,0.26880019112158887,0.2996320741317869,0.33134656481921365,0.339875992757592,0.3460549726352322,0.38411508762591795,0.3280825109889484,0.36400458195743074,0.3905591281178333,2
22,0.32488812989523896,0.32555665520597377,0.2888471743599591,0.2918795771156142,0.3083921561998401,0.300593493126611,0.28056715955981293,0.29028987995722877,0.2791122599659556,0.2843191533551605,0.3037913903784106,0.24639041095801156,0.30248605689640296,0.23487331569204548,0.2727490845634974,0.3156526941161285,0.27767192203205093,0.3182590345545929,0.24769828357723167,0.34454595135358834,0.3071150235580579,0.29211707943394355,0.2938416806229601,0.25538288038631757,0.28566449634349217,0.3149931719539924,0.323050394462338,0.3273994973530992,0.3693647613681919,0.3096464456724923,0.3459658408559856,0.37339901504276335,2
23,0.30095746423064057,0.30240465979771847,0.2677382930122014,0.2720018455815281,0.28793140530756345,0.2767019442555221,0.26339540791496857,0.2730620674341079,0.26083400545631313,0.2655149310819826,0.28270449938178427,0.22920112421127567,0.28727938692215804,0.21920311536040896,0.25867715735847513,0.29487865078421543,0.2565759126189119,0.3017761992406195,0.2308088069545351,0.3209754472172661,0.2918342751936169,0.2708593191117168,0.2739751651248451,0.2376705486364,0.26708284268899574,0.29341510288241424,0.300652395704807,0.3030676010360995,0.34805156745258153,0.2862489543047499,0.3220931643456161,0.34981027455570146,2
24,0.27203713942478447,0.2738132817779001,0.24089865272289115,0.2467989065370971,0.2618535183505297,0.24717486103754144,0.2414744937747049,0.24996446015042073,0.2377217459228368,0.24224769890487263,0.25549076645069163,0.20776143797015545,0.26424832841649054,0.1984642939963734,0.23818720691849316,0.2680327703120517,0.23165759547824633,0.28057516701175156,0.20982067957745926,0.2910485375214774,0.2702427593394001,0.24514422995568363,0.2494461017176511,0.2152317689399519,0.24285854455911146,0.26624807116403404,0.27178890776978304,0.2727969165282992,0.3186676668246629,0.25763929670705366,0.29136760115395643,0.31860272213433677,2
25,0.2374666815023571,0.239355877096944,0.2082967558452438,0.21583049970576618,0.229227870156214,0.21179668743458802,0.21371811607930505,0.2204489325392096,0.2090524242521091,0.21363016954479883,0.22152407193667858,0.18178800477221932,0.23181852091229257,0.17223238325403,0.20970391345761358,0.2343046890622608,0.20226023568085488,0.2527500669052927,0.18435674307917463,0.2540770423199397,0.24056859129523833,0.21530540064382228,0.21926811644134686,0.1876683820784331,0.21215537718293087,0.23341791980350546,0.23636326215597564,0.23621873532384613,0.27993065094281977,0.2237683276349474,0.2530541054274128,0.27915370368709275,2
26,0.19650577899884036,0.19827954994451757,0.17035716793925734,0.1786626768934509,0.18954356576657014,0.17089441732771388,0.17931249058523097,0.18399538998072199,0.17433508002744222,0.17889064811410102,0.1809115868468764,0.15090045263930163,0.18969911322079017,0.14054281568563567,0.172642102340104,0.19368372424159666,0.16785782130156868,0.21623401552392632,0.15383189270072148,0.20937649547551085,0.20140621572656195,0.18124722903004165,0.18265558121781872,0.15462070797019187,0.17468276285290713,0.1944206696129693,0.194516433610081,0.19359413217976654,0.23105341328983614,0.1846993580849492,0.20742128492290607,0.2310640096473361,2
27,0.14917728943576458,0.15078010935774316,0.12824294701094757,0.13552175796672974,0.14290521480784707,0.12599013496500752,0.13759874207856027,0.1407193076335713,0.1334129375849463,0.1374503503113323,0.13484625053444496,0.11547609355097377,0.1394652441281772,0.10433626916192548,0.1282853670007634,0.14673149740112737,0.12857477398045444,0.16924142884180357,0.11789481222949796,0.15725218134367383,0.15273824807756722,0.14196042318932292,0.13980013177017847,0.11656680283636844,0.13079846143082474,0.14900915922907,0.14726071250534234,0.14526162163147147,0.1724282379370179,0.14043093287146896,0.15556695575366306,0.17487956396568918,2
28,0.09687560741144272,0.09830772322613154,0.08402877568848287,0.08775369720573434,0.09131555771534103,0.07969495267256944,0.08940348020513668,0.09219677361552894,0.0871625233099946,0.08994298849540848,0.0859687757091795,0.07680499682571013,0.08528913796453602,0.06584731925218337,0.08087469576487108,0.09536521943205317,0.08513331230492346,0.11229232086950987,0.07734527702094647,0.09963888285528745,0.0975751710109058,0.09611220788513229,0.09191752331073037,0.0750280395744928,0.08298120279444758,0.09777765327390397,0.09642357526677375,0.09284673696598486,0.10755933344005085,0.09180633550297672,0.09985326704889395,0.11300662421153239,2
29,0.04434280158879112,0.04531522452849868,0.04020366832915209,0.03946013098016814,0.040287507400495755,0.035905689598938514,0.039704832132792495,0.042600772791132085,0.03989880739484353,0.04056836831304013,0.038649759660512886,0.03738952276227652,0.03518247427038174,0.029177396839796487,0.036427001667269615,0.04388363425689374,0.03979757816964114,0.05105068128873395,0.035218414468559535,0.043243454335163786,0.04297201667169863,0.045428813610193255,0.04242435088207718,0.03373293923778983,0.036338005930677736,0.044598868475731385,0.044623828692848956,0.04127330634688766,0.04532411966678457,0.04223890260405588,0.04515266685199095,0.05074847574606246,2
0,0.2792475902972321,0.24891648204688166,0.22654031881280737,0.20571456163019575,0.27484749695353816,0.24208810546854398,0.21450661496140297,0.2158431639187349,0.21233452086048019,0.23315752186984898,0.2131320543916873,0.1868658523362463,0.17383896313922273,0.19194229451205455,0.19034761956356486,0.23331163952560147,0.2177383100930297,0.25362120859569437,0.181323988047286,0.23479611988537538,0.21229547759428077,0.23329950184795883,0.21498460860196755,0.18224935710511575,0.23823860469738772,0.2415749679557019,0.23023977619876274,0.24021977484710796,0.22745055437925965,0.2733858348614201,0.28702630053030176,0.2706567001162964,3
1,0.3056424360777951,0.27742025210627,0.253546894566372,0.22405137367746517,0.30487811203922494,0.2663034811008236,0.24128849199079458,0.2401808865115757,0.23520740503170748,0.25848555931404715,0.23594037365152226,0.20555979895108864,0.19288631401942571,0.21322936690904648,0.213441119377058,0.2579141585633593,0.24265896128170697,0.2823977314769621,0.1971291666152922,0.2624892144020929,0.2370549444606116,0.26241839935130334,0.2358963541286535,0.20319078514576205,0.2632806754434599,0.26579630436378837,0.253463384992345,0.26399962296613694,0.2546377133556391,0.2989775333468729,0.3102091509187956,0.2892781913694133,3
2,0.31891635475716584,0.2887530633079519,0.2655081654535948,0.23411253195830245,0.3173653280951075,0.2766433984933927,0.25415217965403,0.25381261710835684,0.24513342044194922,0.2699574003049408,0.2472367246331021,0.21441047987335832,0.20288609488441006,0.22244296252033,0.22499996115676196,0.2702087157852656,0.25497631746827903,0.29634700834224026,0.20427856187746013,0.273315516150457,0.2489433249897318,0.27521444395158556,0.24556485925178373,0.21339897527731325,0.27459941819826333,0.2795756342379809,0.26549785948643034,0.2749970156359068,0.26663155480005496,0.3133313316033647,0.3211705800053891,0.3028411985081061,3
3,0.3286730438723968,0.2960340975065433,0.27338575597954573,0.24057393761041057,0.32508107138192077,0.2831444445977412,0.26330541534567015,0.262306050239929,0.25170209989122544,0.27783258624493085,0.2549014421598035,0.21958732377917134,0.20916865965154469,0.22867666833213057,0.23160926793003853,0.27835474033662383,0.2629976179866374,0.30645132124409447,0.21019951246856397,0.2809077353405272,0.2571497246495184,0.28261726928774494,0.2516959397785439,0.2204823064613773,0.28168676991321784,0.2878108145978435,0.27379693229973795,0.28214905827591763,0.2743125272790008,0.32305738670688633,0.3282423421583979,0.31274170772565707,3
4,0.33738201052966715,0.3031911020138387,0.279984175115829,0.24691960338055693,0.3312553250144916,0.2882671210751277,0.2719316619766097,0.2687651641423878,0.25668999464476544,0.2843783909612596,0.2620542265063913,0.2242292491007093,0.2142748120377712,0.23394368437151908,0.23731215569746078,0.28545842903258334,0.26999271472459274,0.3151672925377191,0.21567252017138688,0.2876716998615637,0.26393546684350994,0.2891393502762982,0.2566294861218986,0.22633869960394923,0.28824720757016925,0.2942779175582525,0.2807298027595695,0.28891120445981755,0.2807026930928906,0.3314199530694045,0.33486267035569794,0.3208347348155956,3
5,0.34602568486199947,0.3102073595603533,0.28612513794867567,0.2529121039267243,0.33697848122445145,0.2931719318223842,0.2799235685374408,0.2748883866425339,0.2616993136473584,0.2907811987178025,0.2689595071170724,0.22867285981839144,0.21906362232827603,0.2391088415718818,0.24333820789179061,0.29214683432688743,0.2768929953749306,0.32291874000638043,0.22118114760575192,0.2938223968204188,0.2704186191321067,0.2952241021625734,0.2615894345440861,0.2318765403798489,0.294703223306866,0.3007387892002136,0.2870854689536204,0.2959484910787268,0.28650940190010804,0.3394507308723441,0.341152669730628,0.3283556246021546,3
6,0.35432798740795146,0.3168786723929741,0.292542572981743,0.25875886369685835,0.34314968946078406,0.2985922619775006,0.28697656523958265,0.28043738075713087,0.2669351591989665,0.29766257933353324,0.2754994679897604,0.23336000036711638,0.22349872345287378,0.2446252632459652,0.24949681271567511,0.2985974090034767,0.28335027379692274,0.3294887809056961,0.22675678072056435,0.29994761672761394,0.27678110672086076,0.30151889996277875,0.26683161056503263,0.23731407725375847,0.30095127603517635,0.3074927163884004,0.29355960042815776,0.3029696016966828,0.29225641010237724,0.34788697788532497,0.34794167847475815,0.33584864946402615,3
7,0.3623388778257498,0.3239913791438971,0.29909508653136463,0.264667483604077,0.35043574300984776,0.3041348529478217,0.2938807995542666,0.28578222549332666,0.27269610897261365,0.3047299757988304,0.2819213775980697,0.2378423436975939,0.22777329246198233,0.250748532687155,0.2555345763961928,0.30500808767388526,0.28950512207887996,0.3360923153972421,0.23246679690774874,0.3060079903411277,0.2829449312403972,0.3082379470966934,0.27278004021026925,0.24246834142446017,0.3075001575070025,0.31451088247126585,0.3009514157701595,0.3103832938221797,0.2978585242016912,0.3563382563687022,0.35561020837129625,0.34308344516118516,3
8,0.3703719271345968,0.3310526754533363,0.30580854108228755,0.27034029914922153,0.35874233690707874,0.3098833394414382,0.30084236319276214,0.29171374411968587,0.2786646127748354,0.3117772740440859,0.28810163841806885,0.24200436801788147,0.23220939069978147,0.2568470603967451,0.26158615125606477,0.31200764719555246,0.2961429977611357,0.34332794846358483,0.23845545148343872,0.3118789986485448,0.28863963794855546,0.3148061870930596,0.2793926936902424,0.24727771815202862,0.31456726748951896,0.3215178697858821,0.30877194297696314,0.3174317341292565,0.30364848755770757,0.3645682275128584,0.36354790870261866,0.3500061815731528,3
9,0.37820639472479656,0.33828203479103514,0.3123276637106695,0.27578864235243983,0.367417172468616,0.31594050511383764,0.307536539265778,0.29786052084329395,0.2850246881520422,0.31889157213606767,0.2947741940718415,0.24633877481895788,0.23655860348449423,0.2631182978187707,0.26762865421450166,0.31909125415040673,0.3029814759652669,0.3508385815853318,0.24448344649927453,0.31752147024028976,0.2939650165172503,0.3214841569619194,0.2861362220407528,0.25201473172909034,0.32125094331787835,0.32835855084779225,0.3162448406733126,0.3245923591767353,0.31000485212932477,0.37278267560138956,0.371500877233741,0.35665552655579646,3
10,0.3863698165904472,0.34544706060649394,0.31828731293006157,0.2814255960357793,0.37573896602672824,0.3220307728478468,0.31411167307790877,0.30391137138456037,0.2917878251507505,0.3263604750122093,0.30193168434432444,0.251107127545903,0.24129955623869698,0.269612668202473,0.2733600428873921,0.32630494394662635,0.3096768609107167,0.3586966065298558,0.2508546521481665,0.3229607902008265,0.29964227209252015,0.3281295056118518,0.29289513054314936,0.25736600131312026,0.3278978473415958,0.33495852327512093,0.32371262572085735,0.33192236812267056,0.31686833504010403,0.3805526527276255,0.3797588426149422,0.36378993461374015,3
11,0.3944647186169233,0.3520998045972933,0.32352910320990746,0.2869568387545378,0.3834599390194127,0.32813556057322896,0.32059771939262516,0.3097158352946496,0.29870688330058814,0.3336077220328261,0.3088973343987528,0.2559621462425754,0.24602268523759246,0.2762304710432227,0.2785707274377622,0.3330707799136206,0.31587952797313723,0.36658077939617484,0.25739387912083617,0.32794977568295985,0.3056032144671596,0.3347120621167411,0.30008201586239786,0.2627269781198842,0.33475315666304195,0.3416354757976868,0.33101739113915774,0.3388474264212868,0.32410411788895344,0.38750300390476466,0.38786670139958784,0.37069086852818733,3
12,0.40210469134616234,0.3586113709367825,0.32859181405650845,0.2917921236150362,0.39082640488643433,0.3340650276971119,0.32722234191344546,0.3154118885683311,0.3057903666366038,0.33975091814148484,0.31569165450167314,0.2606705941677763,0.25052819131759285,0.2828768628277244,0.2833811218445589,0.3391841920406212,0.3220327711963743,0.3740492617133787,0.26423892642550995,0.33285980918528774,0.31163543204085853,0.34102499944344267,0.3071992062269617,0.2678814469962567,0.34141973911328966,0.34835262344048795,0.338205282540298,0.3456546701388721,0.3311799059152568,0.39426400223080693,0.3959981546247563,0.3770761022507782,3
13,0.4091496363402903,0.3650210858656402,0.3339718298441041,0.2957768997070728,0.39770163262449704,0.33954520947102246,0.33343767965724597,0.3205057407479727,0.31250557699107634,0.34504486022746117,0.3218047857857192,0.2653187091524337,0.2547224236287654,0.28916164186776555,0.2878089291739105,0.34459807554024363,0.32763045671858326,0.3804558321020557,0.27087327753615187,0.33732721944143984,0.31762741573823206,0.3468882590200995,0.31396440895365635,0.2725987882517143,0.34728816942001495,0.35512652789748933,0.3448206797112068,0.3514480569263245,0.33779884088560447,0.40039000318507173,0.40423057674439516,0.38274369305761335,3
14,0.41519969843819576,0.3705517173715715,0.33857821375537706,0.29902981730094264,0.4038663784493269,0.34386552302715867,0.3388878840085886,0.32495703388723374,0.31846582284402913,0.3496785104938536,0.32741884215885114,0.26949360177916204,0.2586597560445562,0.29496036222774435,0.2917023220988962,0.34934528250979946,0.3328150681303617,0.38561113585617224,0.27708124110020715,0.3409393220799622,0.322671938536185,0.35216530290437253,0.3199561651041181,0.276730339791594,0.35188316257595936,0.3614956693784495,0.3503471010427339,0.3558686361644546,0.34341722453196466,0.4054245182007252,0.41146152886596554,0.38783602519050786,3
15,0.4195734095716675,0.3744785113382378,0.3420139410811318,0.30155974949571923,0.4088060991162857,0.3467526670880903,0.3430872405261775,0.32841566400051164,0.32361755225115296,0.35343193390909866,0.3319019909358755,0.2730919104442694,0.26210724074261854,0.299957336406802,0.2948831079210183,0.3530762945004626,0.33746982934939085,0.389469537498559,0.28294974205789636,0.3434293285046075,0.32669747582008984,0.356171135055391,0.32486594771025973,0.27977111321457315,0.35548685342065633,0.36674181741821316,0.3549643387225585,0.35872583735571834,0.3475852478613527,0.40902906140803547,0.4171474534209767,0.39195787328521947,3
16,0.4221187036820575,0.3759630625391986,0.34356356928262655,0.30318862551214637,0.41204939286609094,0.3478608511809173,0.34574296023817136,0.3306831158869214,0.3273869840745672,0.3563061676805549,0.33514586015208747,0.275715854616978,0.2645763480886633,0.303795310878045,0.2971066074166092,0.355042879138334,0.3411951287082993,0.39184754006321687,0.2881489486510591,0.34439248999728506,0.32988599614666114,0.3586050538578147,0.32861872886157184,0.2814284346868383,0.3582773852150165,0.3703056296639371,0.3584353485416684,0.35991621801614565,0.35061477575357514,0.4106986192656761,0.4215110333971735,0.39430290670510276,3
17,0.42229675411706863,0.37490045722566473,0.3432878241477964,0.3037609428766149,0.41284462992802484,0.3470608288253095,0.3461865265988239,0.3312607122155862,0.3292580971812827,0.357757240960709,0.33644414594887506,0.27684548350077215,0.26541076341472286,0.30593359202592446,0.29751206596248636,0.3552095630707598,0.3433968291666792,0.39230826334882063,0.292354221530162,0.3434315347347008,0.3317900793692893,0.3588198537917866,0.3309936154740512,0.28142674914913185,0.3597190145716053,0.3715700838704805,0.3600015345032299,0.35887025761946656,0.3524533923038107,0.4094391284033119,0.423953345354088,0.3946208142615901,3
18,0.4197529811917379,0.3712109377035379,0.3408638515609104,0.30312604348453476,0.4102097433820589,0.34391676349700057,0.34419286434974267,0.3297519112028859,0.3293109976992472,0.3570860900707834,0.3352427194661592,0.27635259696736486,0.2644084817578709,0.3059171205776522,0.29591707170506676,0.35332657725579353,0.3433902961725342,0.3899214448339032,0.2948971468600737,0.34021327261758677,0.33188918203775153,0.3563956155574753,0.33127700002987787,0.2794217212909699,0.3588351550458886,0.37049368774287994,0.35921958831800743,0.35570566465703557,0.3525555677718343,0.40486131828354427,0.42362140569526574,0.39275729282699107,3
19,0.4138637319225416,0.3646836966800861,0.33591563554143494,0.30066389156970363,0.403760220032425,0.3381497292880487,0.33944550548047714,0.3257582726534636,0.3270219120259708,0.3534135843530705,0.33147977118143285,0.2737885698065781,0.2613393563670073,0.3034096826976761,0.29215930099031984,0.34870720370825,0.3407680645927755,0.38435929491180654,0.29538704309315894,0.33449069543684157,0.3296601344771043,0.3514356251067574,0.32920084303934843,0.27536844881675776,0.3551476263663308,0.3662343397198191,0.355694322695119,0.34953968664182333,0.3496536911266423,0.39661212309305954,0.41933845591524255,0.3883124541645933,3
20,0.40388110477188083,0.3551602896527631,0.32783782240613935,0.29601018469413104,0.3925177890452456,0.3290433321131526,0.33165176081734077,0.318498949241163,0.32197703603100103,0.34611965708467946,0.3247754811074973,0.2690912762638393,0.2558978495643613,0.29781589527185137,0.28584503212700446,0.34113818208460256,0.3353050852698646,0.3750266790607585,0.2934443415943418,0.32593387702131715,0.3244753199892843,0.34381184798897224,0.3242219479276609,0.2690076963417318,0.3480344168450676,0.3585973578590135,0.3485522685363227,0.33993690856994263,0.34282996081161765,0.384311205139096,0.41047584463482994,0.3809183632609062,3
21,0.38905025265208587,0.34204902914227764,0.315733622910353,0.28863044440182534,0.37595926440310845,0.3163977050188093,0.3198042979815686,0.3075816908192463,0.31348361441773187,0.33472592636002746,0.314519976073773,0.2621003703427309,0.2475787143326881,0.2883236965558887,0.2764024655344636,0.33002339819631826,0.32651425660990563,0.3609252810009099,0.2883179830448585,0.3140297733623837,0.3152707702342299,0.33265614359132434,0.315750303928111,0.2593128288221601,0.3366796231723276,0.34697903894268667,0.3372773411761057,0.3264916879015895,0.33135063016771144,0.36732208403126043,0.3960579743215263,0.3692089960826512,3
22,0.36818746357240506,0.32446265171845534,0.2991598985013975,0.277793793908439,0.3530416178394207,0.29939598930414324,0.303144846879197,0.2922111314949215,0.3002543230332528,0.31851649269059473,0.30003765612141864,0.25202464583836387,0.23592898114256702,0.2741092050201396,0.2630577937460509,0.3142683947725925,0.3129673585478542,0.34127402272720175,0.2787508552539962,0.2981645514514433,0.3011786449746458,0.31703844559477906,0.3029268855129254,0.24566310139893896,0.32039428763823163,0.33039066673511214,0.32135548815624193,0.3083613814643648,0.3144708989124696,0.34479244338563847,0.375145977615899,0.3524747575521499,3
23,0.3409009523768051,0.30157795706043666,0.27783265773035515,0.2626696520221656,0.3231932614133314,0.27760349338958995,0.2810861414027402,0.2714726083574312,0.28135221024026486,0.29694928278241817,0.2807482068442534,0.2377971236825144,0.22050086885432757,0.2546634842808758,0.2448400171816567,0.2933318131073196,0.2935810810565329,0.31570758396163134,0.2636543315493081,0.2774304316222282,0.2812689429711694,0.2962090110690953,0.2851331410315656,0.22755629892284837,0.29839400641980274,0.30811065909386237,0.29985565843382145,0.2850471042490327,0.29160017613434996,0.31613935317605957,0.34688648430468,0.33018370380040596,3
24,0.30666167986069076,0.27278893209439325,0.25118600089146115,0.24200395369717342,0.286437774571045,0.2506673061843006,0.25305133738043206,0.2445903385584084,0.256165061778154,0.2694841464383419,0.2556659771090283,0.21843320914812042,0.20047940233327113,0.22954762418929361,0.22107338385901773,0.26654849825933485,0.2670864991472451,0.28361714144030176,0.24203707255887355,0.2511389984301132,0.2548334417533616,0.2697180324032993,0.2610287149272916,0.20454796097982733,0.2699834216873111,0.2794340779220907,0.2723365001550016,0.2562200631174455,0.2618992933492688,0.28140405653025624,0.3104708670514152,0.3008001214294224,3
25,0.2650596749939482,0.23766686049112673,0.2186229131796256,0.21439494464748637,0.24292617970434047,0.2182618038418484,0.21872358242722784,0.2113241674064522,0.22403183276885968,0.23537718154546278,0.2236846732215488,0.19297144943857916,0.17528468900737473,0.1984394104746257,0.1915512473843377,0.23310562423434975,0.23272982087716737,0.2447609286514567,0.21299576655955102,0.21904577187016142,0.2215371880406023,0.2368737337576337,0.22944451219942097,0.17653566153747097,0.2349317098309228,0.24387536763556608,0.23811216255753928,0.22163760215986764,0.22521062131899014,0.24069189714292927,0.26609347268599565,0.26360352179087143,3
26,0.21669102294231446,0.1957672114791435,0.17978332123593765,0.17888235782958525,0.1938964355909215,0.18006658438577638,0.1782524651798562,0.17223151457695313,0.18475175565305335,0.194087018828697,0.18427689227194663,0.1605810005543505,0.14469865179294472,0.16129597767509213,0.15627881893751072,0.1923995227756583,0.19032411383235193,0.198858833382943,0.17583640387205965,0.18050285439719518,0.18126947581659741,0.19688345633963789,0.18940144443365634,0.14378255500211462,0.19291940456125073,0.20076884453676908,0.19680161530776014,0.18126280251754592,0.18208411325475754,0.1947872175308241,0.21520049876326958,0.2178505595483822,3
27,0.1630760455719097,0.1477423150434399,0.13494803039111453,0.1352783560310087,0.14088180627768937,0.13638167003202223,0.13267498408233924,0.12862384472029517,0.13884089615365394,0.14561497654933317,0.13806289567029548,0.1215170409203437,0.10894322128750972,0.11909152476198816,0.11593179151545324,0.14481450003823454,0.14083064976167953,0.1470908422329449,0.13117592072840892,0.13583061011547898,0.1350813818878798,0.14964715962655584,0.1412783896900198,0.10759265467840495,0.1445194236265594,0.15078480200089153,0.14878168591066263,0.13565871436169197,0.13389748429750756,0.14467487013049796,0.159717055866315,0.16411112799859523,3
28,0.10619129360381134,0.09549002462084287,0.08595940093973041,0.08586310911284359,0.087000041058317,0.08811065097682456,0.08400016242473801,0.08233680420658614,0.08830425644933164,0.09205082841209843,0.08770022171273784,0.07788246536474047,0.06949366169322439,0.07432127852100184,0.07286256718730583,0.09249704439896692,0.0877135081979315,0.09205773746052083,0.08211180833851218,0.08697279106790996,0.08569307669666223,0.0968367074843254,0.08804377726737352,0.06915824694716143,0.09204426813538158,0.09619561221431659,0.09560674284030297,0.08674163190244795,0.08352710277104725,0.0922030605481162,0.10174948195806369,0.10506986242194762,3
29,0.04920482885123812,0.043403284919914055,0.037834620878426255,0.0370006855708712,0.03716874673249721,0.03961805993849213,0.03696378294244799,0.036927072323609665,0.03851792804694029,0.039851695296856636,0.038728265241198136,0.03453770872660651,0.030588567844086152,0.032064097443704274,0.03178839431525614,0.04078978074431991,0.03760864404730561,0.03983338522469014,0.03516419144976637,0.03856056770782522,0.038055401701834586,0.043494083476433444,0.03707112961571212,0.031365511024323174,0.04062812827664529,0.04275322024561257,0.042255731281695956,0.03896552234127099,0.03612587381012798,0.04146533964638507,0.045450612540602786,0.046819008877004194,3
0,0.32146208497327033,0.24297071441234983,0.25437861885560026,0.24502367878365416,0.26428529630546704,0.24730160914166147,0.20273637065390998,0.24174577005127018,0.3007859946222836,0.22780389771652793,0.21240766877342993,0.19574087557037118,0.18646111961271045,0.1707632884326156,0.2042017545805584,0.2533981464988162,0.26837489596135605,0.2491711496020896,0.20631231372715378,0.24188450212806722,0.273435458520928,0.2463031138938748,0.2145389813892075,0.18786891498164107,0.24662226492030573,0.2573477833160193,0.321606801975335,0.2261628429306117,0.23581076260961525,0.32410404371098606,0.3075167845518265,0.2754917074253718,4
1,0.3577292577741267,0.271074542064621,0.2943815159386872,0.28008476424375567,0.2962679723213819,0.28005033248876626,0.2278875259469065,0.2718052856010867,0.3279554921706518,0.2578561429444371,0.24260173295871695,0.21403132893259363,0.21049720738685598,0.19443248991424775,0.23756426180826679,0.29358320060032483,0.31340510337444694,0.2854331576296504,0.24213584242551706,0.280913453679922,0.302643067418392,0.28082436348221773,0.2387468900856745,0.21290294566383844,0.2829197807083608,0.2855462959170719,0.33779075296486205,0.2566389655989551,0.279785641356648,0.36896034502286174,0.35255406829009206,0.3051667485515977,4
2,0.37970334021724755,0.2844257688298384,0.31693271229294084,0.30531122688778384,0.31416373025357636,0.30386501450088393,0.2416402401991217,0.2922630767747601,0.3421504510579068,0.27877545410503096,0.25712315888731624,0.22525581616674417,0.22532298252593183,0.20707340478903977,0.2590894089359151,0.3149997737183135,0.3333086801468853,0.30211491256325285,0.2628669233957869,0.30073482431034565,0.3193153055841057,0.3020432909070479,0.2515496678649217,0.22826921755060037,0.30390624943469585,0.3070973930242666,0.3434361249693306,0.2730892778747772,0.3020432934445991,0.3969899586567987,0.3844562146378094,0.3245681637009874,4
3,0.39551183355827246,0.29268090255705537,0.3303759488254193,0.32369636023451753,0.32698754751535847,0.32038100623781857,0.2517558649182747,0.3075413952238917,0.35055305270784887,0.2948558724936538,0.2670672311730739,0.234006958986827,0.23732656013183695,0.21489921794931946,0.2743936866250538,0.3283253703374385,0.3439116290436056,0.31211276623987644,0.27842844843347225,0.3138168848556551,0.3299019650161839,0.3174527207458792,0.25975580942207727,0.2408095214401612,0.3209108405329994,0.3224368241415458,0.34532339946363383,0.2843243626628489,0.31781843886037275,0.41505035169561527,0.4093593471490906,0.33828952682187957,4
4,0.4102385344577394,0.30023517338761074,0.3405530130357031,0.3379603018552203,0.33807417403319195,0.3327113741560563,0.26003387795800165,0.3192484345844171,0.35686291092500916,0.308632272853548,0.2762635264549577,0.2420880046989247,0.24782284522144568,0.22162900570021407,0.28736551698310564,0.33848840744606096,0.35102418551289055,0.3201343126341098,0.29108227553362803,0.325202548876728,0.3386429051151368,0.3304000019448775,0.26605977144071313,0.25320494495559476,0.3356490680614142,0.33431582533806975,0.3474856793041285,0.2946731710948553,0.3315864392141109,0.42768363662811104,0.4310889516034112,0.3505078533968254,4
5,0.42595603264481224,0.308041005463374,0.349367380135535,0.3493590375645124,0.348620483037817,0.3424124103942818,0.26764873968361025,0.3284316033797967,0.36182848171084403,0.3211153111749446,0.285144957785444,0.24978531019782357,0.25772976091113853,0.22865517903888566,0.29873149922925,0.3469135168060862,0.3570306584233475,0.32806821929336705,0.3015262377251238,0.33621796278460414,0.346392052583247,0.34249220147247583,0.27225051138122375,0.2652721744820685,0.3490200352276989,0.34484474163892626,0.35088008433444506,0.30470298851084615,0.34418980311506303,0.43683884705545234,0.45114534506867726,0.3615837200348678,4
6,0.4415546038968547,0.31610464031478336,0.3576506974367586,0.35827070384791876,0.3584631749746063,0.350172510368631,0.2752649811774496,0.33616713267778137,0.3656402648170885,0.332376207705366,0.2931724349421854,0.2569389432647748,0.2672630838603544,0.23541147490348763,0.30834889592899917,0.3544849980843577,0.36212389864524375,0.33597035371796413,0.30992875235549566,0.3464741810767724,0.35393425390418926,0.35334816436560673,0.27857511763726556,0.2767680939477047,0.3608678837128962,0.35464316572485405,0.3547817543299113,0.3141289332675144,0.3561388722392073,0.4436019468309561,0.4691897191174839,0.3723050393912358,4
7,0.45648541458312075,0.3237964888247287,0.36565932744499746,0.36509170907983163,0.36758301315219016,0.3567181918235974,0.28312215991835993,0.3428188118418115,0.36867112332072477,0.3419102455994752,0.3006664178708319,0.26340801853250795,0.27600039748849486,0.2421800801372456,0.3166443885868378,0.3620592735007366,0.3672297505079193,0.34380460680676794,0.31691832074744064,0.35604607358362145,0.36119417340456994,0.36336057329075594,0.28504055681446083,0.2873106651579493,0.37093724488849456,0.36386191821585073,0.35897498334983846,0.32356026907940605,0.36834014510402135,0.44828200460924733,0.4851761035149991,0.3816763882443184,4
8,0.4704718340277705,0.33122103358018384,0.37351898686535057,0.37034248137148845,0.37639885212615615,0.3619415692814788,0.29097711406846133,0.3484879778778134,0.3711863623792641,0.3495833383575942,0.30814745296890833,0.2692233869910007,0.28350793649546707,0.24889573415221916,0.3242438089906508,0.36957769347390523,0.3726477265205839,0.3513653232850433,0.32316383049499375,0.3654415275823889,0.3682299267776955,0.372531325532963,0.29145573140462033,0.29687579776782413,0.3792609746364198,0.37240159215869434,0.36340910144437094,0.3329679886976211,0.3803259958005493,0.4519338217013623,0.4992022835992186,0.39049586667946945,4
9,0.4826256886758064,0.33832992997724376,0.38084891078055844,0.37413117021373804,0.3853900808498322,0.3662557125209346,0.2986567020289806,0.3536091675047249,0.37311916590288163,0.3558682204436328,0.31577744631830856,0.2745743961714235,0.28970550479063206,0.25544651709923516,0.3305781534951862,0.3777395576431787,0.3783510544520217,0.3586547694330664,0.32881622286278,0.37462120231416723,0.37537898173054757,0.38111046109686614,0.2973559832234081,0.3052712200923976,0.38612962732633777,0.38032005460396356,0.3676240283405282,0.3419180733239639,0.39201371882670943,0.455033241986888,0.5112462721383372,0.39916775222562784,4
10,0.49301172789213266,0.3449875308186809,0.38792884457736604,0.3763944572306876,0.3938615023831954,0.3700193452678555,0.3053709237300436,0.357787557496867,0.3745861498097764,0.36137694149174054,0.3232327544768825,0.27986161316512687,0.295270438558026,0.261810358504707,0.33504015317452596,0.38568440094043,0.3840284352499581,0.3657375961797172,0.3342640380156633,0.3833022170045184,0.38274533629758334,0.3892042827477204,0.3025108480562383,0.31201597664935093,0.39179856602761753,0.38739444324955974,0.3719646085387365,0.3499585482624784,0.40368582228020844,0.4573697423426037,0.5212302080547223,0.4070659942846182,4
11,0.5018074171404899,0.35136276306357306,0.39467825088208935,0.37751226135437527,0.401548479618719,0.3730914892941849,0.3109538522994532,0.3611098107255722,0.37573436833865215,0.36612603125922366,0.3298731994081406,0.28512701773594046,0.3002599089613684,0.2678074361173095,0.3384799199728467,0.3929202718416928,0.38966309477446254,0.3721437773687107,0.33969526961313234,0.3913870554715959,0.3898710608070574,0.39650314111907425,0.307222643459178,0.31757326899078936,0.39618581043021145,0.39422324559967087,0.37583439844519084,0.35699365347708123,0.41536078669397014,0.4589618713267899,0.5287382777783965,0.41407031925182225,4
12,0.5085670103293727,0.35705291692447927,0.4005382251074072,0.3775040336514917,0.40866386533992516,0.3754785982668725,0.31575959815605215,0.36393539579750944,0.3760407484420658,0.369820702149886,0.3356497606900238,0.28965355880730964,0.3044151363059163,0.27364119250577795,0.34084064276899945,0.39927327583675903,0.39501565255092963,0.3777625604910621,0.3450191029226684,0.398632652579128,0.3964183380177366,0.4031080251757805,0.31119269900784724,0.32184277817857954,0.3992145146952804,0.40066960645750316,0.3786847331571956,0.36314498395762773,0.4263312509974182,0.4596103536862593,0.5338279346899156,0.42022790636456914,4
13,0.5127233472393709,0.3619001067530603,0.40575047841946227,0.3763042597177464,0.41473988317315774,0.37696463115751366,0.31996468163972996,0.3658748984996188,0.375370349780996,0.3720896135258553,0.34062689423552894,0.29369189944256197,0.3072303293979203,0.2789916421562988,0.3418964770110091,0.4042029405872307,0.3996117417513157,0.3827905820769349,0.34953192801680444,0.40453051922065375,0.40224171277950826,0.40874341066007985,0.31427192952644123,0.32464540518054924,0.40089257539393913,0.4060387356861999,0.3802314528336197,0.3679425844304399,0.4360240126003973,0.45945520077714314,0.5366806667598633,0.4248581684204085,4
14,0.5138094572679733,0.3663868662517858,0.410118221109137,0.37342498195666435,0.4195758866080194,0.37727767308689636,0.3231740460575985,0.36637115419998123,0.3734898298826964,0.37295182666088744,0.3447779002795325,0.2968332767939844,0.3085570795563468,0.28376351028941843,0.3414199297854377,0.40761885736259285,0.40290567704306945,0.38713863760526523,0.35302117117289994,0.4090298825081598,0.40682251269700476,0.41295182539355635,0.3161240487666286,0.3260660388631268,0.4013046163751324,0.410183116018388,0.38063126963719157,0.37106805179895086,0.4444689035084773,0.458240743454116,0.5376262532132877,0.428572093983927,4
15,0.511649623293078,0.3699554174349146,0.4132501770434885,0.36862796990538876,0.42257313477214076,0.3763685476956367,0.32538519307359276,0.36506465129485766,0.3697038470287414,0.3722275349750712,0.34766260129243487,0.2991240112019627,0.30820310803534795,0.2873587333077511,0.3394652385185492,0.409448751336097,0.4049282106125787,0.39029756233989693,0.35522085603555204,0.4119095801629979,0.40974821124533994,0.4152714666888104,0.31665042768809926,0.3257819136658096,0.4000543533546422,0.41293335113754936,0.37931127612449356,0.37233165826420517,0.4510494126967801,0.45514924398472334,0.5370630817692771,0.4309309224745955,4
16,0.5063638246697205,0.3717496809625628,0.41458976693495087,0.36158485352047426,0.42334506411649014,0.37399861485832564,0.3263882128784218,0.3620641057432059,0.3634726258609948,0.3696312650102245,0.34909465265420586,0.3004000872578539,0.30632935100740016,0.28953524894259247,0.33625755179833844,0.40954458878948813,0.4051589939639601,0.39179411637347344,0.35584819067051965,0.4127429073780381,0.4106660260843479,0.4151803686757345,0.31581043610182835,0.32344316461572653,0.39675846050920077,0.4138830882868184,0.3761984393385357,0.3716820794494561,0.4551830213882827,0.44989215386037695,0.5339864001668175,0.43147537398737035,4
17,0.49781120407060747,0.37160222672328763,0.4138450354749659,0.3522583422601481,0.42141695560043957,0.3699590733456277,0.3263818925536777,0.3574575291202112,0.3547841625890922,0.3647110676585431,0.3485056104913182,0.3004681496110419,0.30277107522240754,0.2896161967568756,0.3317202394508379,0.4070877339038702,0.40293752036800934,0.3912435852449338,0.3545415335970364,0.41125543729545266,0.4090305773681543,0.4129386250585939,0.31313860036968905,0.3191659287801657,0.3914561510555023,0.4126908386136772,0.3711081544873423,0.3691778272200456,0.4562875886151792,0.44284029851313295,0.5275630840414405,0.42974095374643706,4
18,0.4847049410126405,0.36917845198967775,0.4110554568642878,0.3409041942543092,0.4165006249564848,0.36435303805859015,0.32421170746514594,0.3505226813264625,0.343559998985368,0.3573313496930369,0.34539243955106247,0.29894382568156935,0.2970459433183893,0.2870075621655139,0.32531527414963257,0.4017850184401943,0.3975269217695818,0.38787318718524844,0.35059436743037564,0.40692627271119225,0.4038403432721783,0.408339932131953,0.3082360687668392,0.3124836777645282,0.38371297787062664,0.4086073978706687,0.3639489271414924,0.36395987850224704,0.45354297620321077,0.433670965921377,0.517236291018793,0.4252965421209781,4
19,0.4664264696359305,0.36332685515754926,0.40567784048096106,0.32724051015114064,0.40765669181965614,0.35709494164473865,0.3197762394580045,0.3411559689881702,0.32924662428177087,0.3471922157982629,0.33953090878229636,0.29501920622296507,0.28883576579545134,0.281375646628629,0.31641839639999925,0.39291277998531526,0.3886272424587387,0.3817535454845013,0.3433330508984823,0.3994167079042837,0.3944748012595279,0.40071015210424615,0.30093193726552775,0.3029829376094947,0.37333190670133326,0.4012031812595016,0.354410719001949,0.35544294004180876,0.44603870774182447,0.42171985915761684,0.5021647206417303,0.4178362260410922,4
20,0.4429282405966996,0.35344473153949846,0.3967431606402221,0.3111276552478886,0.3938373710174571,0.3473275984458497,0.3124797969618251,0.32913648604770845,0.3120508914721169,0.33436681789596906,0.3304087521472807,0.2882438484249323,0.27795672784044667,0.27244904388076246,0.3050678383681459,0.3803134925620017,0.3758503845016621,0.37213736295878874,0.33219863294729174,0.3882758902005066,0.38000884775361565,0.3890875274230272,0.2912196594585516,0.2902025617808452,0.3597316348002929,0.38976491324432405,0.34201347630613027,0.34347780556777996,0.432984330081776,0.4067624860953304,0.4816273511353941,0.40705333127102683,4
21,0.4146436656680077,0.3392164132268603,0.3834797058855891,0.29261480013759733,0.3743779566189524,0.3342951581021277,0.30171661961710733,0.31408496553674903,0.292628585717625,0.318587387280244,0.3175942912931267,0.27824417269946766,0.26403652915977005,0.25950419585754386,0.29114022777999626,0.3638412580413121,0.3588749427762923,0.35848797758428586,0.31671258167881516,0.373307876241334,0.3597920640134929,0.3732047285407946,0.27857293557884144,0.27367787037955754,0.3422855612872183,0.37278414933010756,0.3263517013453639,0.3279904311036937,0.41395506465100096,0.38811447739657357,0.4550991750747346,0.39196838343760926,4
22,0.3815378872215228,0.3205348614465619,0.36483382989909724,0.27169874499208907,0.3488060896852851,0.3169090213680976,0.28703723102479495,0.29524852004477353,0.27153165564449516,0.2996980142765367,0.3005696744295904,0.2641613147209738,0.2467477192905375,0.24215228602993016,0.274643247311822,0.3430400321982631,0.33766528031421594,0.34003975760310884,0.29667225617456705,0.3538860500953726,0.3337360855066701,0.3524923810402043,0.26272603398686495,0.2530459343139883,0.32082382719068,0.3496239276446801,0.307130608718174,0.3084924465639412,0.38837124690364044,0.36517366486997677,0.4217181392005399,0.37197667928154454,4
23,0.34357414014811594,0.2967241229005232,0.33938771278868163,0.24794372307936563,0.3172284292991353,0.2944686990536611,0.2678300698590654,0.27224722704627274,0.24997618139799735,0.2770273432622168,0.2785203737651783,0.24541879328805763,0.22609926719049878,0.22032479033843497,0.25539072423829623,0.3171619712034832,0.3118535854230351,0.3160260157194492,0.2715887072920199,0.3292869513520081,0.302241870715435,0.326446842056455,0.24345949113202497,0.2280611359757125,0.2950861095011454,0.3201510903504522,0.28342732690457906,0.28440074585953057,0.3560609498604756,0.336592426299425,0.38173774683526224,0.3462771365708958,4
24,0.3008564408545265,0.2674234579212674,0.30621539047760016,0.22111307433324337,0.2795434976487291,0.2656008001425738,0.24322566893693315,0.24421541593946935,0.22844466540280436,0.24989542719434713,0.2507180872212024,0.22136595753707589,0.20236450971211556,0.19394550033993307,0.2325711046051422,0.2855730906881331,0.2814342452384493,0.2854301952445266,0.24090508004384312,0.29851212049355064,0.26574066891291726,0.29494993769335975,0.22024857805727105,0.1995523221585417,0.2643718250918168,0.2843557247804293,0.2547711422531543,0.2554135037650749,0.31672977544366127,0.30130413975086906,0.33507950232929545,0.3136724206737847,4
25,0.2538134601501471,0.2320567034193353,0.2649124937641869,0.19070827790143674,0.2362831338373966,0.2294848522704552,0.21217343622384896,0.21056573424260322,0.20561946830815184,0.21750820480118913,0.21625064006648276,0.19121860673216046,0.1761007656659835,0.1632364551082932,0.20514554828315837,0.24722804354052344,0.24602415294894212,0.24743130528759502,0.2045863876017844,0.26056509077800827,0.22471303651339936,0.2579987714694429,0.19260134231180312,0.1683497607911645,0.22809381431523293,0.24255099508638223,0.22058474807085607,0.22103336492878792,0.27011193328069505,0.25884407607847476,0.28210684707089145,0.2724827126592567,4
26,0.2030726847913769,0.1911488986348847,0.2158078483335679,0.15629938202550372,0.1881028743312582,0.18626243109348306,0.17407505619205413,0.17123612892208476,0.1783766614364151,0.17914680067579056,0.17488125336791388,0.15505308890828293,0.14736285433530846,0.1290801229051929,0.1713328254075795,0.20177249705743758,0.2045997523992843,0.2019973661803956,0.16335212917841826,0.21434325895647774,0.1797027922039501,0.21528982997810095,0.15997507220081067,0.1353548822704532,0.18570459884686383,0.19547490868797454,0.18066804943726594,0.1807448909567429,0.21676201330208156,0.20975954252668363,0.22373949294805037,0.22258281121357423,4
27,0.14912082284629083,0.14506006328186422,0.16002620976705242,0.11744104247171956,0.1362642643398054,0.13701267177365392,0.12955604544255905,0.12690227395193596,0.14260430800452015,0.13503937822302797,0.1278773747251829,0.11395819336522432,0.11550703517946742,0.09286830954978258,0.13011283701602658,0.1499112493440121,0.15649740135673232,0.14986026392242074,0.11838818685308117,0.1600393050829594,0.13162509685040824,0.16599638736130853,0.121934660287715,0.10097469601375214,0.13776080607539273,0.14423398157368228,0.13528991150510372,0.13473834353711486,0.15785128591878983,0.15535259598421536,0.1618926290905781,0.16508357853556213,4
28,0.09389428821403492,0.09491524136924599,0.10059553998954683,0.07508213549822533,0.08367249072415006,0.08494969780181726,0.08125068129448745,0.07999697353402876,0.09609276168558212,0.08685089444559564,0.07871074964759199,0.07071682208620665,0.07834526974831431,0.05683984062717337,0.08285613086919713,0.09413908893775014,0.1017794004499142,0.09393638136429543,0.07227020716687658,0.10045954868957495,0.08250448989912824,0.10963492083523922,0.07912213014167883,0.0651335546316553,0.08679834980251254,0.0908867110360971,0.08624268566617979,0.08554387638741656,0.09699348181776485,0.09819772978666119,0.099869185134373,0.10386658198499128,4
29,0.04120553964736305,0.04342686129832071,0.04365741654174688,0.03338054065292697,0.03551235565491382,0.03634686338125602,0.03495883684992367,0.03517739341240875,0.04323639957082786,0.03875229932336692,0.033591303456765934,0.030274053530356223,0.03634399373614337,0.02418787285299961,0.03576753912208904,0.040273848053698096,0.04516073996135498,0.040366856019974695,0.030143410621926044,0.04289342811374871,0.03624228920059143,0.0495467580599467,0.035427581846561106,0.02913689179966902,0.03807521611584162,0.039650663293867794,0.038146689488899765,0.03793512819909581,0.04089304113498571,0.043356269714884925,0.04312733168206534,0.045957699086745574,4
0,0.25649836606490917,0.22071027275089214,0.21876967049965831,0.1922595228016482,0.21664916789142846,0.22568466603211254,0.1882738182117209,0.20484633458827653,0.19409229782763746,0.20993137202961093,0.19906784002062083,0.16828359094948817,0.16440696785991904,0.1548549368133037,0.17550736595077687,0.21848402027803335,0.19956034939124975,0.2290356566315522,0.17303676903625495,0.2174809166953283,0.19185501717193906,0.22216317915609288,0.18312772405570607,0.17553612258592996,0.20148270793678125,0.22878390652226607,0.2281191273006813,0.21691645193067388,0.21560337069479335,0.23932143376718767,0.26040567590614305,0.2621878641924954,5
1,0.2821328101839473,0.24540812579430651,0.25015552367598287,0.21081418096621574,0.24246861581521478,0.24900410223502503,0.2088678696240218,0.22626905864901103,0.2168029174692554,0.23680308859363983,0.2236587910124211,0.19017432460607772,0.18546980253757503,0.17217981495958337,0.1969655998227349,0.2426387572699577,0.22707511826568588,0.2588401161911136,0.19448064376618115,0.24055996820522685,0.21456571952953482,0.24817456938081778,0.20231131492319604,0.19634400539864733,0.2223157606373145,0.2584786566926381,0.2546827208887888,0.24246733694010342,0.24379676055388294,0.2600187090533109,0.28926580319768774,0.28553617615171833,5
2,0.30063164457440866,0.2599067012126047,0.26765854345621914,0.22390941801773515,0.258310259916332,0.262861146994605,0.22067240517862316,0.24067104926167351,0.22941729763939933,0.24980434266228446,0.2372721847110139,0.20201635482910682,0.19639988791179788,0.1821570448889927,0.21052557001811198,0.2571832194954071,0.2405470133246245,0.2753186221184737,0.20625520935628644,0.2565169792727366,0.2289634530505093,0.2619345169033862,0.21390768619717743,0.2082165931292188,0.23223344747968272,0.27913569378482866,0.2705971599483346,0.25604447030113636,0.2594242605078037,0.2745047090316739,0.3053109022985957,0.30237249069916894,5
3,0.3145222192371806,0.2708914129902917,0.2793894408041811,0.2345445270798235,0.2696762451991288,0.2729259009390995,0.22890803907979965,0.2516241918178172,0.2391312907951558,0.2598625416850319,0.24735052410614497,0.20989833263443383,0.20433117246064694,0.18970611075242247,0.2204872719473306,0.2678565791805373,0.24923857817479467,0.28800312128772626,0.21510124884415716,0.27030601203115323,0.23967756373176638,0.2715658063256871,0.22226144323907177,0.2172100303598071,0.23960390057757125,0.2935226604701277,0.28203099011768873,0.26594380405342927,0.27109155558753745,0.2861331765446249,0.318729220749645,0.3155596027102457,5
4,0.3267604639045306,0.2809410738424322,0.2891683867985554,0.24346890477396851,0.27997361866074844,0.2817325726113578,0.236124471080469,0.2614111795463677,0.24802915728628486,0.2693170565829344,0.25620811291268036,0.21730151427438602,0.21159634199953303,0.19651945946455326,0.2288981776067679,0.2773681074338603,0.25684842871728697,0.29998732153277075,0.2232607281082843,0.2833820600616341,0.24898237600266507,0.2803932415163914,0.2288960232554499,0.2252035521475316,0.24702420394746638,0.30549164692335623,0.2928394737210576,0.27501429186314624,0.28140549409654275,0.29627679797860074,0.3310978206315406,0.32781748227109714,5
5,0.3387080574288718,0.29072357381268676,0.2983398941840108,0.2517714317554767,0.2896045480491554,0.2899447875797444,0.24314256980742735,0.2705056914042747,0.25698285416298466,0.27788588822474825,0.2647446390825199,0.22522996114750216,0.21834994491337853,0.2033861428426518,0.23682335376650418,0.2868280700965654,0.26456662990879665,0.3115373697919125,0.23081428537064586,0.29528130724210394,0.25821055743653804,0.28887112577281393,0.23505806381441485,0.23285647372018678,0.2554178193509686,0.3160824499778617,0.30330740419719526,0.2843443880875963,0.29144293080578937,0.3056318131846537,0.34348421231262816,0.33954074970033105,5
6,0.35003109652642517,0.30051548609104317,0.306897251922037,0.2591151168030956,0.2988219180279354,0.298317860411777,0.25023844087679137,0.27916394718193716,0.26613036203773255,0.2854833762484166,0.27273808271378536,0.23298970801477642,0.22516538276007814,0.21036471937152104,0.2446018483203137,0.2956265014302624,0.2721752347167603,0.32250619778210565,0.23811655322195135,0.305462462357697,0.26728227341228966,0.29654666041111405,0.2414466288491588,0.24032892943045425,0.2641297578582752,0.3262297017519631,0.3132477719469102,0.2935706215561891,0.30075757423557997,0.3145951436021666,0.35563106380487114,0.3509624262388166,5
7,0.35996708015213125,0.31004258402795576,0.31549470234569665,0.2658732103616141,0.30784199107267163,0.3070438643962016,0.2573421267193511,0.2871235960297944,0.2749450195484228,0.29312820057069233,0.28030695208400686,0.24012259123175103,0.231612208529519,0.2171489383537234,0.2524173678861057,0.3041583728060496,0.2797827086232465,0.33320512047496165,0.24489795183220062,0.3150490892125651,0.27603053962348273,0.3041396586289226,0.2483498006336228,0.24725039122887177,0.2724382882940733,0.3358827693193602,0.3225466920336146,0.30266172866507207,0.3091517609321913,0.32292925366982295,0.36763560694711955,0.36145078502756034,5
8,0.3693412951942259,0.3193779366324156,0.3246255395974918,0.2725528314888374,0.3168681431782543,0.3157694011700747,0.26447158706909274,0.2950407762028777,0.2837809888945702,0.3011822139293242,0.2880066708902638,0.24714799410613547,0.23777520016012835,0.22400075169683056,0.25995387746739196,0.31319098660315214,0.2877807361145351,0.3439047219446379,0.25177580543491374,0.3241911579013522,0.28448341781455105,0.31202590152072285,0.2553683040411466,0.25437272206808914,0.28047348707972636,0.34523003336781194,0.3319221639336471,0.31187559056099345,0.3170057495308664,0.33132382227983226,0.3797425263193643,0.3718356846245011,5
9,0.37870116872400733,0.3290460987885007,0.333787069623069,0.27925318510658714,0.32572708473312273,0.3245300887868831,0.2715708425778166,0.303275125891623,0.29226596261560783,0.30918752519293685,0.2956780135965117,0.2544767609413883,0.24383079866620383,0.23105224690050102,0.2674493956500316,0.32230137033856227,0.2957279812198276,0.35526422796324225,0.2587030120476727,0.3328221086382233,0.2931388755331029,0.32015159391700115,0.26239366036907097,0.26182910196797937,0.28804335539954057,0.35492516104758437,0.3414666852693222,0.32123501293572304,0.32460547228897224,0.34009325822154246,0.39180836172897465,0.38287591561593554,5
10,0.3881595039558626,0.3386970673681393,0.3435675300382717,0.2860703240854621,0.33368025678189006,0.3334718806499462,0.27843132827244377,0.3114062996307275,0.3007916035647096,0.3172767817562049,0.3032297281394832,0.26160977189548107,0.2499782874269732,0.238339967826035,0.2751183189937637,0.3315197827220268,0.30404470002023487,0.3668263448456565,0.2660060308860669,0.34074398646338316,0.30194764641267596,0.3285780314000854,0.2695383670433459,0.2692523340447954,0.29503769730427554,0.3651222271182613,0.3507934240167756,0.3307163944276417,0.3321386599292305,0.3492835148192685,0.4034818531864812,0.39400819838054146,5
11,0.39733171506967296,0.3481786952251267,0.35328138892896926,0.2926828861479733,0.3410798804686889,0.3421355790091917,0.2851440159117393,0.31940887611944085,0.30933754882153564,0.3251357619846239,0.3100008072224077,0.2686400587112861,0.25585000330875396,0.24535125282081602,0.282566688827854,0.34087759501246606,0.31292206503288605,0.3785230227528111,0.27299295360981013,0.3478780384652316,0.31065362759556414,0.3374280255488223,0.2767551536916009,0.27621264441583193,0.30170219627739586,0.375527294913658,0.3591463604806572,0.3399908496204653,0.3397548996075202,0.35829852630727527,0.41416989990663305,0.4045648070725931,5
12,0.40606800071459903,0.3576082404085307,0.36240955214553233,0.2986540841138872,0.34841560102854013,0.34974748684204504,0.2914060135520842,0.3271408157589043,0.3173224111901078,0.33230189257790976,0.31656781578110327,0.2753627891285729,0.26187210991034876,0.2521440924176988,0.289358641102235,0.3497945524942341,0.3223344962522729,0.3894248906429137,0.27949962858914684,0.3543343361061878,0.31918952216226715,0.3463649596939545,0.28372079747109347,0.28257209819043294,0.3079366040604113,0.3851992249407429,0.36699027103166765,0.34908457014328975,0.3470612320585387,0.36685260012397003,0.42371402789822177,0.41496030787918187,5
13,0.4138330015441831,0.3660427559396973,0.3704600856694914,0.30406939285759677,0.35545969187940285,0.3565735063965068,0.29724052333811635,0.33426628933464825,0.32459706714761855,0.33868731733636753,0.3232889634715204,0.28112550030278566,0.2672373332618437,0.25848772023673267,0.2953414636631949,0.35789973065978575,0.3317027895752355,0.3999673186786513,0.285562244469334,0.35974924510906886,0.32775145268070116,0.3550054495138354,0.2904473937535364,0.2880136989557373,0.3137902672099825,0.39406306460759416,0.37421825329669567,0.3574694201216472,0.3539855175665924,0.37462340210237577,0.43233475286144474,0.42446847527740966,5
14,0.42030374556068867,0.3734954347886786,0.3772223124470337,0.3084566957468985,0.3616420983368776,0.3626769080642926,0.3021103519567308,0.34043015413043504,0.3315031560161633,0.34383787805122873,0.3298091106092666,0.2857429033595382,0.27157243043640666,0.2643286253572633,0.30055606042456967,0.365298032370598,0.3399707690319763,0.4101025006085578,0.2909473222737012,0.3638539715192654,0.33583700884713463,0.36320001812933006,0.29690903276242736,0.29292622107733113,0.31901109756589785,0.40225850558731147,0.3803219605193473,0.36488423828245325,0.3600870890439702,0.38140250190296887,0.4399515460959029,0.4327937209999069,5
15,0.4252329790004262,0.3794345620110476,0.3826940433396472,0.31192018162565904,0.36648819664893173,0.3676027104616758,0.30572099013465104,0.34554576079842786,0.33778442846631274,0.34757550199869636,0.3351223710948023,0.28945660769605625,0.274607664858612,0.26916690590202397,0.3047992915060725,0.37227128641497986,0.3468442388099651,0.41946665647873455,0.2956117863489435,0.36672197666994194,0.343126383606979,0.3708671530556168,0.30272624746843324,0.2969484444074806,0.32363416307783865,0.4092076496460816,0.38530405625224484,0.3711852790827266,0.36507106055152705,0.3870477914916645,0.44580469362803443,0.4395607313003602,5
16,0.4280525520588102,0.38395746203479675,0.3865608589273551,0.31438921382995433,0.36959080531607374,0.370716357707319,0.3080873824521792,0.3493904007719707,0.34274107191279907,0.3498939825360487,0.3391406405396537,0.2921904765605272,0.27624967738435385,0.27295960578548256,0.30796094238016886,0.378497939017807,0.3524400886393342,0.4278398997149106,0.29913612734135586,0.3683722630541727,0.34941928802296096,0.3776760410849256,0.3075673970659419,0.30016510993140144,0.3270522504283745,0.4142450764283929,0.388887072210735,0.37634582358024926,0.3686694976283719,0.39097988023964314,0.44919857510799227,0.4441804615124189,5
17,0.4282556208947306,0.38644715856866124,0.3877313587378337,0.3153443260404584,0.37054132493421976,0.37173548554122043,0.30902287903958964,0.35138941227508974,0.345488734118818,0.3507322338132352,0.3415146482318482,0.29356391207302795,0.27641073674380495,0.275720996161755,0.31003812723920776,0.38315648872310376,0.35661231659003956,0.4346045006199284,0.3014065438897734,0.3676273498242466,0.35394470175916287,0.38341950668612307,0.3107226568423866,0.302373845117242,0.3285420770306537,0.4174470717380276,0.39120409962897107,0.37972125024505404,0.3702151926242935,0.39276345100353555,0.44987984721423085,0.44632168328157795,5
18,0.42593008968618906,0.3861955157946525,0.3856301416628324,0.314626197400361,0.3688100233345047,0.3700452362847794,0.3083065080174749,0.3511247891639018,0.34577154211041944,0.34946662081612156,0.3416144413343927,0.2931746900565639,0.2750272533572028,0.27648705154464925,0.3103812013128687,0.3858140650323872,0.35846247517681407,0.4392503571923816,0.30190451366159904,0.3641106400017296,0.35618173454685376,0.3877334851240654,0.3118003046719479,0.30292283944119647,0.32821303069411156,0.4180429351464783,0.3917515431223425,0.38110144728382805,0.36926264603368214,0.3919225732678412,0.44747377026678653,0.44513634676666425,5
19,0.4202155411019057,0.38273411522232315,0.3795587391930518,0.3118171368312021,0.3641224642449709,0.3649736019587363,0.3054225473487892,0.3488242248979533,0.3433132414458294,0.34525791538347406,0.3389590283181834,0.29067815193810703,0.2717066967165552,0.2746881496184055,0.3083464403601863,0.38575329506120415,0.357536195875064,0.4412933146056061,0.29998127948863973,0.3578171105638475,0.3555276932548099,0.3901419397370849,0.31043230898707386,0.3012024632416625,0.32559053494078943,0.4150972311346593,0.390006783251266,0.3796275253628028,0.3649462303368559,0.3880569141390332,0.4408276695388329,0.44001456542365247,5
20,0.410901126920239,0.3751854017729901,0.3688020156873452,0.30643749014186145,0.3562580698918723,0.35607768012038493,0.29957542434714246,0.3440459321031356,0.337442304317321,0.33796568246016206,0.3331500512750656,0.28576582371497855,0.2658079417345971,0.26995050002225085,0.30338850300272946,0.3821816620337581,0.35366129658566525,0.4397362808966913,0.295131091427507,0.3484021722029816,0.35123008616513995,0.3893404224182696,0.30575513829450673,0.29619657994104615,0.31973154967308476,0.40796534148460595,0.38574465649900536,0.3749814958147743,0.35680060999888064,0.38087670545291236,0.4287718585028783,0.43054814666398494,5
21,0.3974078375583117,0.3629345578184085,0.35265230403381825,0.297907236321439,0.3448449953067314,0.34299657409413314,0.2904827407893025,0.3363965359195195,0.3274815073314524,0.3272567236026368,0.3238227781900437,0.27764993689137524,0.2569192313992055,0.2619269680116145,0.29477163756191427,0.3741296692240707,0.3460407713048098,0.4336245047371011,0.2869705464408015,0.3353867207234928,0.3422851405770174,0.3843919413030446,0.2971071107246372,0.28716848673935924,0.3104115941778839,0.39568549228068517,0.3779908335355563,0.36663353988327607,0.34427284125201013,0.36990896113397975,0.4106041553226695,0.4154422350844136,5
22,0.3784793383118437,0.3449640077787058,0.33041404509804567,0.2854642119727731,0.3290735281122264,0.3251455606644646,0.27786999042146066,0.32486097026892147,0.31248459692763636,0.312464570210353,0.3102427934615775,0.26539939158344555,0.2447070739879648,0.24986436586872354,0.2814581923611348,0.3607153469519646,0.3340935300819852,0.42149201771656486,0.274962771672718,0.31781321478434826,0.32794971308962984,0.3742365177545906,0.28394687053450546,0.2731393432565378,0.29703525075069587,0.3774155520806489,0.3652593269795251,0.35354477062406736,0.326436321747258,0.3535888226156498,0.3854693717552954,0.39412641537176496,5
23,0.3535025541484458,0.32067038995292224,0.30248395076364837,0.26860331115557257,0.3080788043728786,0.3019773511396441,0.26105471108317946,0.30777278788249024,0.2913196082549475,0.2931770647394549,0.2919557949558771,0.24831453220472868,0.2287971995741302,0.23303510147929346,0.26270128648966157,0.34026106199048856,0.31681347239761026,0.4016948751105626,0.2582821773271119,0.29481567256808916,0.30758365663709925,0.3575108984051362,0.2658766353958298,0.25375278809558244,0.2789060801560246,0.3520259937015113,0.34639835621791604,0.33418672395683385,0.3026622231572088,0.33056771364455584,0.35365875033550376,0.3653120575414914,5
24,0.3215501946265282,0.28928247742001234,0.2691886958489666,0.24683021823849124,0.28125441083003866,0.27338015078241634,0.238915044428014,0.2834358959989174,0.26311408316714757,0.2689881698942522,0.2682683107379531,0.22590674193599014,0.20877699616114376,0.21107425798375595,0.2377071584356999,0.311774455657228,0.2935087986256347,0.37229698900285335,0.2362887683675684,0.2656230747338558,0.2802089306892966,0.33227349243517035,0.24216332644017124,0.2285103867682514,0.25462596024000356,0.3192260380940843,0.3193538837131101,0.30678965965126165,0.27295257464004685,0.2998476095558162,0.31554350069492015,0.3280776448903579,5
25,0.28185886703423113,0.2503055089963472,0.2311124116438946,0.21904694759407164,0.2474621965723561,0.2386689987730031,0.21081904434086313,0.25027068306566713,0.2274558940402736,0.2391555971877363,0.2383632914815292,0.19779325589109667,0.18379499701268162,0.18376267028055043,0.20648027618325154,0.2742930420727081,0.2629330768337341,0.3317951828295685,0.2082455336981334,0.22956888933419492,0.24513018234685413,0.2967036161058487,0.21273107630113602,0.1973671267529934,0.2238231183783727,0.2782284708138184,0.28235024120705066,0.26960922650980595,0.23695720810805865,0.2610658893823336,0.2719323244802484,0.2824141581257302,5
26,0.23383419849612544,0.20384612234574148,0.18857540486228283,0.18447843226740718,0.20606167828972966,0.1975647256509212,0.1761834007732372,0.20755731434451172,0.18487825638013342,0.20294919257326122,0.20157716138187923,0.16395150137590714,0.15330089054256382,0.1510197634245063,0.16979166269088544,0.22747675367088596,0.22380025118188607,0.27854666771183895,0.173438407883784,0.1867652432281302,0.20210392577193864,0.24922921745968657,0.17725569668657482,0.16101932327767748,0.186284506744864,0.22873147877919497,0.23422037498180073,0.22181708526089272,0.1948717144572031,0.2147555939266016,0.22361277582289874,0.2299276237432451,5
27,0.1781976838898733,0.15115502777151285,0.14194914396251193,0.1423624050108985,0.15697878500911253,0.1499646672043873,0.1349969493249274,0.15626434641527812,0.13698472424345023,0.15900806604773124,0.1575239978749152,0.12476276052252315,0.11711446938300532,0.11323206478427902,0.12875049238672637,0.17229656906835492,0.17505449474713863,0.2126919441334437,0.13218998080407285,0.13845566754515276,0.15168581211986287,0.1902392335803593,0.13579808848807914,0.12068229268934232,0.14215511170064382,0.17149338781680587,0.176166363578519,0.16475845968652778,0.14717581861860846,0.16181254693417313,0.17079727042809334,0.17265209109147023,5
28,0.11678542110260334,0.09598531361074802,0.09170711109260277,0.09355708657611286,0.10180306780943511,0.09723973429781865,0.08832668118974525,0.09994584415922818,0.08686245969332843,0.10569290114438258,0.10628942927760923,0.08137983781047423,0.0764159996118955,0.07217436249761527,0.08443334474247456,0.11103383523462956,0.11698947379722437,0.13710598343080252,0.0860380344448932,0.08732892245376321,0.09658590442282712,0.1232172068155245,0.08898193366313822,0.0781536625106579,0.0928264769084689,0.10891895796448609,0.11162143414961924,0.10324285279246025,0.09495971013469459,0.10436129344401962,0.11272601474671448,0.11251865052284368,5
29,0.053968228169967526,0.04360243490791634,0.04127756499408307,0.04255122418607111,0.04558197408563202,0.04402393711097846,0.04027368887498426,0.044586113295361565,0.039073940449965025,0.04720320159825432,0.05058518896240783,0.037293576864306816,0.03482775858760168,0.03202256246879702,0.039169633663112664,0.04883011023394688,0.05428815544716053,0.060083595623627285,0.03922162651194969,0.03862952493234892,0.0427032852342677,0.055410465339090775,0.040409875342184993,0.036129301233638084,0.04227132129301989,0.047387947345649564,0.04857385335768023,0.04532989573761842,0.042225545620647405,0.04713707587740619,0.051751349437626666,0.052444761623448584,5
0,0.27215509182410513,0.210836934848295,0.2215683768181884,0.19510247849279586,0.22714260234410502,0.20907724694845845,0.20103440940001804,0.20156302486944094,0.2032262539590852,0.20896274324512873,0.20110776878175368,0.18635875198111576,0.17524435730747503,0.17350122415121705,0.1984494684952823,0.24088278662697024,0.2156560838120533,0.23730418782448315,0.17410364948153312,0.2288662461272934,0.20286207129406977,0.25391543370538733,0.23918939927843652,0.18848006115357466,0.21628592772081223,0.23938720208632652,0.2310461696218731,0.2238842308841655,0.22529956891615102,0.2594570257521669,0.263969804454577,0.26573824970281895,6
1,0.29869562986322207,0.23595822573971525,0.24613376828614633,0.21635142991522346,0.25460123344048596,0.22935316872355616,0.22269961866803514,0.22337986008768718,0.22477922948922152,0.23216218665419788,0.22456880085707376,0.2057276994781418,0.1955933228631002,0.19145531979254307,0.217302781979917,0.2672852335605425,0.23941016834626944,0.26338682286358306,0.18976005879753127,0.25522977092385485,0.22380691598932015,0.27121585399669107,0.2638839573926757,0.21137900852105546,0.2389232097135795,0.26458123496485414,0.2523203355767884,0.24541843861025195,0.24775240516159455,0.28134491209171475,0.2900161575054823,0.2843250219416448,6
2,0.31117163004063664,0.24946280051848274,0.2581865564936083,0.22819102091681415,0.27029129888605746,0.2393865232006979,0.23256377928921254,0.23541427356596098,0.23709961855594724,0.24598912580097476,0.23651200300681988,0.21397041346540835,0.20691596774491222,0.1996725184532179,0.22800503691403914,0.2830993891807591,0.2512282295990281,0.2773482202818841,0.19695518039780602,0.26753459008944935,0.2341302815034709,0.27878650332776456,0.2751695939964557,0.2242665694841051,0.25067389613253677,0.2798850617041668,0.26271516176135123,0.25540602780376825,0.25872378292786546,0.29448321971313873,0.30355882333071704,0.2954207345423479,6
3,0.31840672287916877,0.2585886974625427,0.2651638210980104,0.23444681486847446,0.279855761543727,0.24578933406957526,0.23834819461536094,0.24314484617102652,0.24501117705571251,0.25498972756728966,0.24315517887961516,0.21828157852954408,0.21476743474133195,0.20433787081234575,0.23461869637746255,0.2936759635967042,0.2593047768612229,0.28697361448054964,0.20193195682817092,0.2757021353074303,0.24049157608266755,0.2849995409761519,0.2828733254543088,0.2317892495841293,0.25753020617387773,0.2892831766125335,0.26877265825828306,0.26131358872371374,0.26642644487260725,0.3042114191494314,0.3129822660531636,0.3015923687220898,6
4,0.3245675313260446,0.2664823660024197,0.27064809774927184,0.2385875931273754,0.2877979913637708,0.25115799767893227,0.24307075319442406,0.24986535178786182,0.25125321236231446,0.2629490211981343,0.24912233103044695,0.22261572310995803,0.22139900011773508,0.20805570648470764,0.23916279432596055,0.3022509128062597,0.26585475350671606,0.2959582755230485,0.2061187742774145,0.2837195150318656,0.2464016223668074,0.2908611698408268,0.29001394664721086,0.2374792154040712,0.2642477230124077,0.2972260611175753,0.2742684260420012,0.2678630457244875,0.27340604021635184,0.3134649714578065,0.3218965329801363,0.30698232678579973,6
5,0.3311142925883909,0.2746509188095176,0.27723103832121154,0.242497770251845,0.2961827298816952,0.256276988856887,0.24841733629492196,0.25665074198652504,0.2574485017713909,0.270961485992167,0.2551724231265417,0.22710929988775613,0.2276722734994279,0.21158866073715268,0.243070977615007,0.31010927058127313,0.27186437113207906,0.30410984551785664,0.21052579114545367,0.29165749001817826,0.25296185455034426,0.297146190396059,0.2981141533467251,0.24273607365119654,0.2702610222557927,0.3045895198637126,0.28025911373497886,0.2746392572807242,0.28049604768464426,0.32260971951110934,0.33078340155582864,0.3138421940314043,6
6,0.3384626267280652,0.2829052508673113,0.2850781851345255,0.2467115009094252,0.30537290202886674,0.26147694291446905,0.25379259176078195,0.26345592548644026,0.26377761424290447,0.27926811075649954,0.2609542739534503,0.23167445399261158,0.23410739487008045,0.21573457380580058,0.2479798720619806,0.3186042266612254,0.27789858665124245,0.3124451869432503,0.2156627278020888,0.30012649011453973,0.2599371748866673,0.30441072205941594,0.3075888736554426,0.2488050075604584,0.27582536174275096,0.31261246889461625,0.28723569237843394,0.281555002966904,0.28737504227942096,0.33179679133282647,0.3401657291928324,0.32222881875527726,6
7,0.3464868417399764,0.29126918666145546,0.2941373884011838,0.2517461247546677,0.31449191973542734,0.26782571599210847,0.2592800771031453,0.27063256866284596,0.27093714117535894,0.28743925237991375,0.2667423322319868,0.23704750319477233,0.24061029216803795,0.2210178941598708,0.25369649891255974,0.32770252772234787,0.2847162697226126,0.3208648622505256,0.2215276288851373,0.3085002479385415,0.2675322181459954,0.31244426428425615,0.318291869449733,0.25581889237286826,0.2824727314054975,0.32067552894686824,0.2948447654255436,0.2885834818005369,0.2944177079870154,0.34065288179628156,0.3500022869854282,0.33084895233364603,6
8,0.35534765482699743,0.3003990288969887,0.30409816595669414,0.2577939118508846,0.32433722859645564,0.2749912101646722,0.2651343330115075,0.2781688361155119,0.27921023725679045,0.29593857652646405,0.27358580144885086,0.24385740508255552,0.24710815965112196,0.22709129415767174,0.26001611431857724,0.3376357315251915,0.29285710849689195,0.3301610564711646,0.22823959303223992,0.3170324207036251,0.2763161424560892,0.3209193056706881,0.3301498273268789,0.2638343439380014,0.2903264783204421,0.32969296603316617,0.30299681872101364,0.29585599531164297,0.302323487394397,0.3497596919251106,0.3606644098824064,0.33951577991840814,6
9,0.3648410225120175,0.31023058787275004,0.31408204052617944,0.2638337118078078,0.33444699143732964,0.28253290136004955,0.2707903661166072,0.2859499159543608,0.2877917296433035,0.30519863089848703,0.2809122798417231,0.25170119528557894,0.25374096851858763,0.23347917828674356,0.2667505629766552,0.3479680586360101,0.3012353891736985,0.34000734946552214,0.23528273058973148,0.3254389613881897,0.2855823996445811,0.3301466657370162,0.3438489134256437,0.27238267804287647,0.2993416232566603,0.3389160034516576,0.31126126931925957,0.3033378919662722,0.3105660210902394,0.359189959722496,0.37250620005811497,0.3483349725136242,6
